#spectrum
851.00 2278.42301587
852.00 2244.38968254
853.00 2256.66984127
854.00 2227.28412698
855.00 2236.82142857
856.00 2225.56349206
857.00 2216.02063492
858.00 2200.13253968
859.00 2220.96269841
860.00 2196.19285714
861.00 2201.23015873
862.00 2176.99682540
863.00 2186.77619048
864.00 2176.31428571
865.00 2163.07301587
866.00 2159.29841270
867.00 2141.72301587
868.00 2141.77936508
869.00 2114.89761905
870.00 2135.40396825
871.00 2118.50793651
872.00 2116.10555556
873.00 2103.85396825
874.00 2083.31507937
875.00 2074.41031746
876.00 2072.27380952
877.00 2068.35555556
878.00 2077.19126984
879.00 2067.57539683
880.00 2057.70793651
881.00 2051.33571429
882.00 2050.11984127
883.00 2039.52777778
884.00 2032.33650794
885.00 2012.07936508
886.00 2010.78730159
887.00 1987.39682540
888.00 1977.23095238
889.00 1996.63968254
890.00 1998.14761905
891.00 1970.32936508
892.00 1959.74920635
893.00 1977.46746032
894.00 1972.89920635
895.00 1940.78253968
896.00 1928.94682540
897.00 1943.55317460
898.00 1938.26507937
899.00 1920.86190476
900.00 1916.81031746
901.00 1910.08968254
902.00 1910.26587302
903.00 1892.24841270
904.00 1883.14285714
905.00 1895.35000000
906.00 1866.95396825
907.00 1870.30317460
908.00 1863.06507937
909.00 1852.09126984
910.00 1843.44682540
911.00 1863.74682540
912.00 1832.09365079
913.00 1830.45793651
914.00 1820.58730159
915.00 1804.37857143
916.00 1798.45714286
917.00 1788.55158730
918.00 1794.30952381
919.00 1785.23888889
920.00 1762.12063492
921.00 1766.89047619
922.00 1764.45238095
923.00 1740.82142857
924.00 1771.35158730
925.00 1747.24206349
926.00 1732.90952381
927.00 1743.32460317
928.00 1734.83968254
929.00 1720.72142857
930.00 1740.52619048
931.00 1706.39761905
932.00 1736.63412698
933.00 1695.95714286
934.00 1683.67460317
935.00 1705.01111111
936.00 1674.54126984
937.00 1687.43095238
938.00 1685.22619048
939.00 1647.58253968
940.00 1679.83730159
941.00 1669.54761905
942.00 1643.09603175
943.00 1655.57460317
944.00 1648.20000000
945.00 1654.99126984
946.00 1617.84682540
947.00 1630.62222222
948.00 1619.80396825
949.00 1621.42063492
950.00 1614.24206349
951.00 1585.46031746
952.00 1593.54761905
953.00 1564.92698413
954.00 1586.33888889
955.00 1567.21269841
956.00 1583.19603175
957.00 1555.43571429
958.00 1552.63571429
959.00 1534.24126984
960.00 1560.30000000
961.00 1534.08650794
962.00 1543.77222222
963.00 1557.50317460
964.00 1543.23571429
965.00 1508.44047619
966.00 1486.08809524
967.00 1511.10079365
968.00 1513.15079365
969.00 1493.26825397
970.00 1486.84206349
971.00 1496.37777778
972.00 1481.50000000
973.00 1513.35317460
974.00 1476.19365079
975.00 1480.25238095
976.00 1475.02222222
977.00 1467.97857143
978.00 1460.92857143
979.00 1465.04523810
980.00 1439.78412698
981.00 1433.05079365
982.00 1415.92301587
983.00 1447.92063492
984.00 1449.64761905
985.00 1412.20793651
986.00 1448.68571429
987.00 1428.83888889
988.00 1420.53333333
989.00 1425.09920635
990.00 1400.12857143
991.00 1413.89523810
992.00 1393.19444444
993.00 1390.62857143
994.00 1383.04603175
995.00 1354.87777778
996.00 1357.45476190
997.00 1376.66746032
998.00 1363.45000000
999.00 1355.56507937
1000.00 1347.38809524
1001.00 1339.03412698
1002.00 1359.94285714
1003.00 1347.48253968
1004.00 1342.17460317
1005.00 1330.44761905
1006.00 1325.78809524
1007.00 1330.54682540
1008.00 1327.05476190
1009.00 1328.82460317
1010.00 1302.17619048
1011.00 1326.16031746
1012.00 1301.46587302
1013.00 1293.86825397
1014.00 1287.51904762
1015.00 1296.33412698
1016.00 1266.63888889
1017.00 1280.12380952
1018.00 1289.55396825
1019.00 1279.70634921
1020.00 1256.41587302
1021.00 1266.42698413
1022.00 1271.55952381
1023.00 1248.74444444
1024.00 1255.58174603
1025.00 1251.31031746
1026.00 1240.72857143
1027.00 1238.65079365
1028.00 1245.32936508
1029.00 1259.21031746
1030.00 1229.11904762
1031.00 1234.09365079
1032.00 1241.35634921
1033.00 1224.13015873
1034.00 1206.86190476
1035.00 1199.91111111
1036.00 1223.26269841
1037.00 1215.05634921
1038.00 1210.63492063
1039.00 1196.65396825
1040.00 1193.72857143
1041.00 1174.65634921
1042.00 1187.16111111
1043.00 1170.01428571
1044.00 1187.27380952
1045.00 1150.45873016
1046.00 1166.99761905
1047.00 1153.83412698
1048.00 1168.55396825
1049.00 1156.04285714
1050.00 1148.03968254
1051.00 1151.21031746
1052.00 1157.79682540
1053.00 1145.31349206
1054.00 1141.13174603
1055.00 1146.40238095
1056.00 1139.18015873
1057.00 1121.05714286
1058.00 1114.52619048
1059.00 1142.06031746
1060.00 1121.58412698
1061.00 1120.69920635
1062.00 1098.25793651
1063.00 1111.34206349
1064.00 1096.25317460
1065.00 1093.29761905
1066.00 1078.59444444
1067.00 1069.44047619
1068.00 1089.94682540
1069.00 1069.96349206
1070.00 1075.34047619
1071.00 1073.32698413
1072.00 1067.20714286
1073.00 1071.21428571
1074.00 1068.06269841
1075.00 1064.85000000
1076.00 1062.77539683
1077.00 1043.94047619
1078.00 1065.27222222
1079.00 1038.91349206
1080.00 1038.08015873
1081.00 1043.37063492
1082.00 1031.52460317
1083.00 1049.54047619
1084.00 1027.77539683
1085.00 1033.99761905
1086.00 1019.67063492
1087.00 1028.16269841
1088.00 1017.51904762
1089.00 1013.56904762
1090.00 1007.31825397
1091.00 1003.89206349
1092.00 981.20952381
1093.00 1005.49444444
1094.00 1001.54126984
1095.00 996.65396825
1096.00 983.98333333
1097.00 980.54841270
1098.00 982.13888889
1099.00 990.48888889
1100.00 997.78650794
1101.00 994.92857143
1102.00 989.81746032
1103.00 960.38015873
1104.00 955.36825397
1105.00 967.67857143
1106.00 961.61746032
1107.00 961.22619048
1108.00 950.48968254
1109.00 944.11984127
1110.00 954.33492063
1111.00 944.03888889
1112.00 934.45555556
1113.00 930.53888889
1114.00 955.03492063
1115.00 941.60555556
1116.00 933.37539683
1117.00 925.03809524
1118.00 941.34682540
1119.00 932.66746032
1120.00 901.12380952
1121.00 939.13492063
1122.00 945.51349206
1123.00 929.51904762
1124.00 952.85555556
1125.00 944.26984127
1126.00 927.36666667
1127.00 925.13015873
1128.00 942.73968254
1129.00 926.96190476
1130.00 935.69047619
1131.00 929.85714286
1132.00 932.33015873
1133.00 919.51746032
1134.00 933.87619048
1135.00 918.67222222
1136.00 921.84761905
1137.00 940.40555556
1138.00 947.66269841
1139.00 938.22460317
1140.00 932.69047619
1141.00 924.04444444
1142.00 923.17857143
1143.00 941.01507937
1144.00 941.90873016
1145.00 964.07777778
1146.00 933.33174603
1147.00 929.84682540
1148.00 936.58571429
1149.00 959.72063492
1150.00 944.93492063
1151.00 940.45555556
1152.00 945.35873016
1153.00 952.93015873
1154.00 948.75952381
1155.00 958.70079365
1156.00 931.84126984
1157.00 941.16587302
1158.00 940.43412698
1159.00 934.01507937
1160.00 948.79126984
1161.00 946.73809524
1162.00 934.85873016
1163.00 961.09603175
1164.00 961.84126984
1165.00 947.21587302
1166.00 972.46904762
1167.00 949.69206349
1168.00 917.34444444
1169.00 949.12142857
1170.00 957.70952381
1171.00 957.33730159
1172.00 956.32857143
1173.00 947.98650794
1174.00 938.04682540
1175.00 952.26904762
1176.00 935.03015873
1177.00 950.53333333
1178.00 948.06428571
1179.00 948.38015873
1180.00 948.10317460
1181.00 945.63571429
1182.00 931.15793651
1183.00 919.89206349
1184.00 969.44603175
1185.00 947.37222222
1186.00 948.23888889
1187.00 936.52301587
1188.00 940.52857143
1189.00 931.22222222
1190.00 925.71269841
1191.00 941.52460317
1192.00 938.66190476
1193.00 916.95476190
1194.00 908.99285714
1195.00 913.39523810
1196.00 926.51825397
1197.00 936.89920635
1198.00 903.06507937
1199.00 915.82063492
1200.00 892.54761905
1201.00 912.12142857
1202.00 909.13730159
1203.00 894.47222222
1204.00 924.66666667
1205.00 929.74285714
1206.00 910.48650794
1207.00 914.88809524
1208.00 908.61031746
1209.00 910.94761905
1210.00 913.31507937
1211.00 897.72063492
1212.00 922.31111111
1213.00 896.72301587
1214.00 890.27063492
1215.00 885.46587302
1216.00 901.80634921
1217.00 896.26666667
1218.00 900.06904762
1219.00 891.17142857
1220.00 860.72539683
1221.00 880.98412698
1222.00 876.53412698
1223.00 912.55396825
1224.00 897.82857143
1225.00 891.25634921
1226.00 904.68253968
1227.00 892.06746032
1228.00 890.01984127
1229.00 883.98888889
1230.00 853.69920635
1231.00 872.69603175
1232.00 870.79206349
1233.00 863.84285714
1234.00 859.37301587
1235.00 863.02698413
1236.00 850.63571429
1237.00 868.96507937
1238.00 869.17857143
1239.00 846.76984127
1240.00 855.16587302
1241.00 854.14603175
1242.00 844.62460317
1243.00 857.15634921
1244.00 862.02301587
1245.00 855.60238095
1246.00 840.15952381
1247.00 853.58333333
1248.00 863.89523810
1249.00 835.42301587
1250.00 836.39841270
1251.00 836.10714286
1252.00 829.23253968
1253.00 847.57539683
1254.00 827.80238095
1255.00 828.18174603
1256.00 815.77301587
1257.00 837.48968254
1258.00 825.95317460
1259.00 836.00952381
1260.00 816.26031746
1261.00 806.54523810
1262.00 839.07301587
1263.00 819.45873016
1264.00 817.19047619
1265.00 804.13730159
1266.00 799.33571429
1267.00 813.31746032
1268.00 827.11746032
1269.00 829.04444444
1270.00 787.76031746
1271.00 798.59444444
1272.00 796.38333333
1273.00 785.69603175
1274.00 792.14761905
1275.00 786.82936508
1276.00 778.69682540
1277.00 782.77380952
1278.00 793.68571429
1279.00 807.96984127
1280.00 785.44206349
1281.00 755.33809524
1282.00 759.56984127
1283.00 784.24047619
1284.00 778.94206349
1285.00 814.37380952
1286.00 778.53730159
1287.00 750.49444444
1288.00 779.67619048
1289.00 753.56825397
1290.00 751.83888889
1291.00 757.36746032
1292.00 753.45238095
1293.00 760.71904762
1294.00 752.93809524
1295.00 758.12698413
1296.00 776.23253968
1297.00 785.96746032
1298.00 746.90952381
1299.00 753.98015873
1300.00 739.62222222
1301.00 748.70793651
1302.00 755.47857143
1303.00 767.18968254
1304.00 756.71984127
1305.00 750.08888889
1306.00 739.08253968
1307.00 744.41825397
1308.00 751.26746032
1309.00 761.04682540
1310.00 751.63650794
1311.00 736.98571429
1312.00 729.78015873
1313.00 725.98809524
1314.00 725.95714286
1315.00 734.41984127
1316.00 728.86269841
1317.00 715.38730159
1318.00 723.36190476
1319.00 718.73809524
1320.00 724.94603175
1321.00 733.89285714
1322.00 723.78015873
1323.00 742.52460317
1324.00 712.46904762
1325.00 701.86904762
1326.00 741.26666667
1327.00 717.94603175
1328.00 716.04761905
1329.00 696.18412698
1330.00 722.50000000
1331.00 726.91904762
1332.00 734.09761905
1333.00 731.54841270
1334.00 719.00555556
1335.00 721.13174603
1336.00 721.20714286
1337.00 736.08492063
1338.00 730.76666667
1339.00 738.11587302
1340.00 732.25634921
1341.00 730.62539683
1342.00 727.05714286
1343.00 744.58888889
1344.00 735.29206349
1345.00 712.97539683
1346.00 731.65555556
1347.00 738.80317460
1348.00 733.12301587
1349.00 735.15793651
1350.00 736.50079365
1351.00 773.92936508
1352.00 735.08730159
1353.00 756.38174603
1354.00 734.81269841
1355.00 766.41349206
1356.00 720.28730159
1357.00 718.90158730
1358.00 745.19841270
1359.00 721.57698413
1360.00 726.66904762
1361.00 751.67698413
1362.00 735.20317460
1363.00 717.92857143
1364.00 731.21349206
1365.00 722.09126984
1366.00 736.90714286
1367.00 731.76587302
1368.00 720.54523810
1369.00 723.40476190
1370.00 741.97301587
1371.00 726.34603175
1372.00 746.27380952
1373.00 762.68174603
1374.00 738.63174603
1375.00 723.04682540
1376.00 727.34285714
1377.00 732.98412698
1378.00 740.90238095
1379.00 727.87539683
1380.00 725.23809524
1381.00 726.50873016
1382.00 727.97142857
1383.00 734.22142857
1384.00 754.05793651
1385.00 719.98253968
1386.00 752.54841270
1387.00 730.41349206
1388.00 733.23968254
1389.00 737.39841270
1390.00 728.85555556
1391.00 756.52222222
1392.00 739.80238095
1393.00 766.85634921
1394.00 755.52698413
1395.00 750.07301587
1396.00 726.37142857
1397.00 734.27380952
1398.00 737.90555556
1399.00 745.78253968
1400.00 723.78730159
1401.00 725.93492063
1402.00 730.19603175
1403.00 735.71111111
1404.00 730.89206349
1405.00 724.74365079
1406.00 718.45396825
1407.00 728.92539683
1408.00 725.51031746
1409.00 734.76507937
1410.00 723.04920635
1411.00 722.27063492
1412.00 716.94920635
1413.00 723.99285714
1414.00 731.06428571
1415.00 718.75396825
1416.00 706.18730159
1417.00 707.47698413
1418.00 741.72936508
1419.00 709.05555556
1420.00 696.42857143
1421.00 704.21587302
1422.00 739.08412698
1423.00 709.97460317
1424.00 699.08333333
1425.00 716.39841270
1426.00 705.65793651
1427.00 713.87222222
1428.00 709.58412698
1429.00 711.25555556
1430.00 715.88412698
1431.00 701.20476190
1432.00 667.36111111
1433.00 694.57301587
1434.00 697.58253968
1435.00 704.23492063
1436.00 682.11111111
1437.00 696.97777778
1438.00 681.42460317
1439.00 675.33888889
1440.00 684.28571429
1441.00 688.43809524
1442.00 686.84444444
1443.00 687.27698413
1444.00 698.73253968
1445.00 704.21349206
1446.00 702.08650794
1447.00 698.21984127
1448.00 681.76746032
1449.00 700.78333333
1450.00 674.62698413
1451.00 694.42142857
1452.00 658.07222222
1453.00 677.10555556
1454.00 680.90714286
1455.00 689.85158730
1456.00 652.72777778
1457.00 686.37063492
1458.00 686.41031746
1459.00 672.57380952
1460.00 693.85079365
1461.00 690.21349206
1462.00 660.87301587
1463.00 676.27380952
1464.00 654.78015873
1465.00 679.28809524
1466.00 674.89920635
1467.00 682.45238095
1468.00 665.54523810
1469.00 686.65714286
1470.00 672.50079365
1471.00 658.17063492
1472.00 692.63650794
1473.00 681.71825397
1474.00 666.62142857
1475.00 680.08571429
1476.00 660.49126984
1477.00 673.03412698
1478.00 658.51507937
1479.00 644.96507937
1480.00 661.36349206
1481.00 666.94285714
1482.00 650.90555556
1483.00 642.56825397
1484.00 683.85000000
1485.00 657.05555556
1486.00 655.96587302
1487.00 666.28730159
1488.00 662.54206349
1489.00 658.38730159
1490.00 655.02857143
1491.00 633.82777778
1492.00 656.73412698
1493.00 643.42936508
1494.00 670.92460317
1495.00 640.64920635
1496.00 651.97777778
1497.00 638.11746032
1498.00 660.61825397
1499.00 617.54126984
1500.00 643.32777778
1501.00 645.73095238
1502.00 659.30158730
1503.00 666.42142857
1504.00 659.18809524
1505.00 653.59444444
1506.00 625.68809524
1507.00 643.03095238
1508.00 637.75634921
1509.00 644.73730159
1510.00 640.51825397
1511.00 650.22539683
1512.00 619.58730159
1513.00 652.62857143
1514.00 645.20396825
1515.00 641.93492063
1516.00 621.69841270
1517.00 630.06904762
1518.00 641.86904762
1519.00 638.97619048
1520.00 643.80793651
1521.00 623.17936508
1522.00 620.98095238
1523.00 621.04920635
1524.00 627.79365079
1525.00 606.88968254
1526.00 628.51984127
1527.00 628.27698413
1528.00 628.66746032
1529.00 623.43174603
1530.00 633.28174603
1531.00 599.25158730
1532.00 627.55317460
1533.00 623.77857143
1534.00 603.52301587
1535.00 639.46825397
1536.00 611.48968254
1537.00 616.25238095
1538.00 608.65000000
1539.00 632.01428571
1540.00 613.99523810
1541.00 624.15634921
1542.00 608.77539683
1543.00 616.68571429
1544.00 587.33412698
1545.00 588.15873016
1546.00 588.90158730
1547.00 623.37380952
1548.00 629.42857143
1549.00 592.08253968
1550.00 583.27460317
1551.00 600.75634921
1552.00 602.87857143
1553.00 603.95396825
1554.00 612.32222222
1555.00 582.72142857
1556.00 569.74365079
1557.00 591.30000000
1558.00 589.21587302
1559.00 579.23095238
1560.00 575.51507937
1561.00 597.67301587
1562.00 601.05952381
1563.00 590.55000000
1564.00 575.97222222
1565.00 592.49206349
1566.00 597.35555556
1567.00 612.76825397
1568.00 573.16190476
1569.00 583.91666667
1570.00 582.87063492
1571.00 595.87063492
1572.00 588.99444444
1573.00 577.34682540
1574.00 579.42698413
1575.00 555.11904762
1576.00 564.18571429
1577.00 582.59126984
1578.00 565.10317460
1579.00 549.73412698
1580.00 561.22460317
1581.00 583.96984127
1582.00 583.14603175
1583.00 590.07619048
1584.00 551.49920635
1585.00 570.86904762
1586.00 563.61825397
1587.00 565.59761905
1588.00 549.39682540
1589.00 569.96587302
1590.00 550.60158730
1591.00 566.91507937
1592.00 557.08650794
1593.00 558.80952381
1594.00 560.17380952
1595.00 541.27301587
1596.00 552.79285714
1597.00 547.47777778
1598.00 577.85714286
1599.00 547.69285714
1600.00 545.82777778
1601.00 543.90555556
1602.00 538.37539683
1603.00 543.20317460
1604.00 559.33492063
1605.00 540.31190476
1606.00 574.68571429
1607.00 542.37460317
1608.00 559.17380952
1609.00 552.48253968
1610.00 523.38650794
1611.00 546.78253968
1612.00 502.31507937
1613.00 548.76111111
1614.00 546.34682540
1615.00 527.32857143
1616.00 529.31984127
1617.00 545.85634921
1618.00 520.01031746
1619.00 550.96428571
1620.00 529.93968254
1621.00 544.24523810
1622.00 524.10079365
1623.00 538.60714286
1624.00 529.80873016
1625.00 531.44682540
1626.00 503.43571429
1627.00 514.15873016
1628.00 522.79523810
1629.00 518.73333333
1630.00 544.89047619
1631.00 513.36190476
1632.00 507.36349206
1633.00 526.66349206
1634.00 528.17460317
1635.00 545.69841270
1636.00 516.23968254
1637.00 504.58174603
1638.00 524.30000000
1639.00 498.08015873
1640.00 519.23174603
1641.00 514.75873016
1642.00 510.23809524
1643.00 503.85317460
1644.00 489.77619048
1645.00 530.45396825
1646.00 495.32142857
1647.00 487.12301587
1648.00 514.44365079
1649.00 504.32222222
1650.00 490.20000000
1651.00 519.07380952
1652.00 493.02460317
1653.00 508.17936508
1654.00 502.86904762
1655.00 489.17460317
1656.00 506.73412698
1657.00 492.56507937
1658.00 494.83809524
1659.00 475.42222222
1660.00 487.36349206
1661.00 487.39841270
1662.00 484.59603175
1663.00 485.12777778
1664.00 493.24841270
1665.00 461.97063492
1666.00 479.77460317
1667.00 459.15555556
1668.00 480.84523810
1669.00 467.53809524
1670.00 482.99285714
1671.00 462.25476190
1672.00 484.39285714
1673.00 465.28412698
1674.00 478.42619048
1675.00 464.26111111
1676.00 456.25476190
1677.00 461.47142857
1678.00 479.58333333
1679.00 472.93174603
1680.00 474.07619048
1681.00 458.44047619
1682.00 495.00952381
1683.00 469.31111111
1684.00 470.82222222
1685.00 482.75555556
1686.00 463.43888889
1687.00 485.38888889
1688.00 454.83095238
1689.00 460.52698413
1690.00 475.94444444
1691.00 478.51428571
1692.00 449.67142857
1693.00 479.04920635
1694.00 471.48730159
1695.00 477.11984127
1696.00 467.40396825
1697.00 432.63571429
1698.00 473.41428571
1699.00 467.94285714
1700.00 438.71349206
1701.00 471.45714286
1702.00 464.41587302
1703.00 438.70873016
1704.00 470.72619048
1705.00 461.79047619
1706.00 458.95000000
1707.00 452.78333333
1708.00 449.96587302
1709.00 451.13492063
1710.00 467.76904762
1711.00 441.95634921
1712.00 446.27380952
1713.00 447.87619048
1714.00 436.80000000
1715.00 455.80714286
1716.00 431.93809524
1717.00 445.26349206
1718.00 444.62777778
1719.00 434.82380952
1720.00 443.43333333
1721.00 452.76587302
1722.00 443.17857143
1723.00 436.22539683
1724.00 442.68650794
1725.00 420.15793651
1726.00 425.06507937
1727.00 444.95714286
1728.00 423.51031746
1729.00 417.81746032
1730.00 435.25714286
1731.00 427.62222222
1732.00 444.88650794
1733.00 441.74126984
1734.00 414.33095238
1735.00 418.65952381
1736.00 417.93492063
1737.00 428.64761905
1738.00 443.90634921
1739.00 398.97142857
1740.00 424.04682540
1741.00 415.97698413
1742.00 400.14682540
1743.00 412.49603175
1744.00 403.91031746
1745.00 421.35238095
1746.00 407.74047619
1747.00 414.78253968
1748.00 410.37777778
1749.00 409.55396825
1750.00 407.85714286
1751.00 423.42142857
1752.00 410.83888889
1753.00 396.11031746
1754.00 412.08015873
1755.00 428.36269841
1756.00 408.76349206
1757.00 409.37698413
1758.00 415.83492063
1759.00 399.98095238
1760.00 400.59206349
1761.00 385.51825397
1762.00 394.12936508
1763.00 405.13888889
1764.00 392.69841270
1765.00 396.22698413
1766.00 427.83333333
1767.00 406.56349206
1768.00 425.01507937
1769.00 415.57539683
1770.00 398.08888889
1771.00 381.09603175
1772.00 418.61746032
1773.00 384.55317460
1774.00 415.80158730
1775.00 406.78492063
1776.00 393.77777778
1777.00 422.61507937
1778.00 386.82222222
1779.00 399.81666667
1780.00 378.13015873
1781.00 392.10555556
1782.00 391.23730159
1783.00 400.91507937
1784.00 375.86825397
1785.00 379.78095238
1786.00 374.10317460
1787.00 368.57380952
1788.00 410.02222222
1789.00 374.45793651
1790.00 379.81904762
1791.00 393.78809524
1792.00 371.58095238
1793.00 375.34761905
1794.00 376.67301587
1795.00 401.80873016
1796.00 378.95873016
1797.00 411.23492063
1798.00 383.27460317
1799.00 387.84206349
1800.00 387.74206349
1801.00 389.50952381
1802.00 408.22619048
1803.00 366.55873016
1804.00 362.82698413
1805.00 390.19682540
1806.00 371.12222222
1807.00 355.93492063
1808.00 373.67301587
1809.00 382.37301587
1810.00 376.70555556
1811.00 386.32063492
1812.00 389.08968254
1813.00 374.00000000
1814.00 387.15317460
1815.00 369.09523810
1816.00 356.22698413
1817.00 366.38095238
1818.00 362.87619048
1819.00 362.31746032
1820.00 386.03492063
1821.00 384.54444444
1822.00 363.06666667
1823.00 366.73174603
1824.00 361.01031746
1825.00 378.96031746
1826.00 350.16904762
1827.00 371.88571429
1828.00 368.37460317
1829.00 330.22539683
1830.00 372.30000000
1831.00 369.12619048
1832.00 357.96984127
1833.00 346.14523810
1834.00 363.26587302
1835.00 381.58730159
1836.00 370.98333333
1837.00 349.49761905
1838.00 351.26111111
1839.00 360.68412698
1840.00 339.28333333
1841.00 355.51031746
1842.00 360.46190476
1843.00 349.35079365
1844.00 356.42619048
1845.00 378.92857143
1846.00 352.49047619
1847.00 336.68650794
1848.00 334.90396825
1849.00 330.04841270
1850.00 342.21666667
1851.00 339.70555556
1852.00 372.41349206
1853.00 339.86190476
1854.00 370.37619048
1855.00 327.53253968
1856.00 335.62619048
1857.00 334.88888889
1858.00 334.05158730
1859.00 324.71507937
1860.00 356.93650794
1861.00 339.11825397
1862.00 322.00555556
1863.00 343.75079365
1864.00 351.76190476
1865.00 335.13015873
1866.00 337.09126984
1867.00 324.68888889
1868.00 338.20079365
1869.00 345.70793651
1870.00 313.78730159
1871.00 325.59126984
1872.00 323.19523810
1873.00 352.85000000
1874.00 314.13968254
