#FORMAT	     : EMSA/MAS Spectral Data File
#VERSION     : 1.0
#TITLE       : Al2O3_(alpha)_Al_K_Stefan_Nufer_53
#DATE        : 
#TIME        : 
#OWNER       : eelsdatabase.net
#NPOINTS     : 756
#NCOLUMNS    : 1
#XUNITS      : eV
#YUNITS      : 
#DATATYPE    : XY
#XPERCHAN    : 0.300048
#OFFSET      : 1548.599976
#SIGNALTYPE  : ELS
#SPECTRUM    : Spectral Data Starts Here
1548.599976, 79.430298
1548.900024, 205.992065
1549.200073, 69.569946
1549.500122, 130.537354
1549.800171, 28.151978
1550.100220, -81.940308
1550.400269, -51.385010
1550.700317, -61.888306
1551.000366, 21.593384
1551.300415, 39.413330
1551.600464, 9.798584
1551.900513, -39.584595
1552.200562, -2.613892
1552.500610, 29.151489
1552.800659, 89.664062
1553.100708, 158.066040
1553.400757, -49.495483
1553.700806, -25.717773
1554.000854, -203.922852
1554.300903, -158.021118
1554.600952, -37.119507
1554.901001, -170.683472
1555.201050, -144.106567
1555.501099, -6.367676
1555.801147, -53.184692
1556.101196, -16.792358
1556.401245, -55.366211
1556.701294, 62.651978
1557.001343, -8.667114
1557.301392, -29.870239
1557.601440, -55.894043
1557.901489, 5.382202
1558.201538, -171.899170
1558.501587, 17.589722
1558.801636, -32.585205
1559.101685, -9.818237
1559.401733, -107.433472
1559.701782, 83.083008
1560.001831, -11.474731
1560.301880, 43.372070
1560.601929, 92.825439
1560.901978, 85.017456
1561.202026, 19.524170
1561.502075, 72.237183
1561.802124, 82.541138
1562.102173, 181.641602
1562.402222, 85.020264
1562.702271, -112.532104
1563.002319, 84.860229
1563.302368, 137.578857
1563.602417, 269.626709
1563.902466, 232.344360
1564.202515, 251.236816
1564.502563, 391.227417
1564.802612, 272.906006
1565.102661, 439.192749
1565.402710, 352.066772
1565.702759, 391.466064
1566.002808, 351.836548
1566.302856, 435.177856
1566.602905, 628.996094
1566.902954, 531.583008
1567.203003, 786.851562
1567.503052, 754.985107
1567.803101, 844.025879
1568.103149, 829.507690
1568.403198, 884.141113
1568.703247, 999.652100
1569.003296, 1017.039673
1569.303345, 1139.948730
1569.603394, 1166.166260
1569.903442, 1341.636719
1570.203491, 1359.080444
1570.503540, 1482.360107
1570.803589, 1757.020874
1571.103638, 1835.415161
1571.403687, 2145.858887
1571.703735, 2375.791504
1572.003784, 2569.873779
1572.303833, 2746.756348
1572.603882, 2898.625977
1572.903931, 3307.982422
1573.203979, 3596.467773
1573.504028, 4088.519531
1573.804077, 4448.442383
1574.104126, 5020.965332
1574.404175, 5575.981445
1574.704224, 6110.228516
1575.004272, 6958.047363
1575.304321, 7775.361816
1575.604370, 8640.029297
1575.904419, 9763.845703
1576.204468, 10937.942383
1576.504517, 12276.755859
1576.804565, 13958.827148
1577.104614, 15815.105469
1577.404663, 17842.419922
1577.704712, 20699.810547
1578.004761, 24052.912109
1578.304810, 28277.794922
1578.604858, 32640.669922
1578.904907, 36198.652344
1579.204956, 37990.523438
1579.505005, 37297.449219
1579.805054, 35051.687500
1580.105103, 32465.939453
1580.405151, 30451.634766
1580.705200, 29099.503906
1581.005249, 28302.320312
1581.305298, 28507.076172
1581.605347, 28449.875000
1581.905396, 28806.025391
1582.205444, 29041.458984
1582.505493, 29482.041016
1582.805542, 29843.134766
1583.105591, 30172.957031
1583.405640, 29988.740234
1583.705688, 29671.886719
1584.005737, 29017.957031
1584.305786, 28535.320312
1584.605835, 27438.548828
1584.905884, 26280.677734
1585.205933, 25094.919922
1585.505981, 23877.708984
1585.806030, 22575.300781
1586.106079, 21303.382812
1586.406128, 20267.966797
1586.706177, 19590.500000
1587.006226, 19161.775391
1587.306274, 18784.451172
1587.606323, 18964.351562
1587.906372, 18761.125000
1588.206421, 18550.208984
1588.506470, 17882.812500
1588.806519, 17442.255859
1589.106567, 16955.589844
1589.406616, 16772.343750
1589.706665, 16372.434570
1590.006714, 16153.235352
1590.306763, 15888.058594
1590.606812, 15885.484375
1590.906860, 15549.816406
1591.206909, 15730.661133
1591.506958, 15740.798828
1591.807007, 15423.877930
1592.107056, 15170.434570
1592.407104, 15014.415039
1592.707153, 14799.408203
1593.007202, 14724.778320
1593.307251, 14675.203125
1593.607300, 14590.121094
1593.907349, 14403.547852
1594.207397, 14336.762695
1594.507446, 14252.048828
1594.807495, 14200.211914
1595.107544, 14099.212891
1595.407593, 14249.696289
1595.707642, 14205.493164
1596.007690, 14048.954102
1596.307739, 14257.927734
1596.607788, 14183.023438
1596.907837, 14296.232422
1597.207886, 14171.995117
1597.507935, 14364.112305
1597.807983, 14426.640625
1598.108032, 14671.610352
1598.408081, 14746.023438
1598.708130, 15085.879883
1599.008179, 15106.614258
1599.308228, 15171.285156
1599.608276, 14995.878906
1599.908325, 15078.617188
1600.208374, 14984.920898
1600.508423, 15062.658203
1600.808472, 15075.258789
1601.108521, 15221.228516
1601.408569, 16471.914062
1601.708618, 16031.176758
1602.008667, 15103.921875
1602.308716, 15310.164062
1602.608765, 15261.228516
1602.908813, 15431.116211
1603.208862, 15321.700195
1603.508911, 15479.410156
1603.808960, 15538.788086
1604.109009, 15283.022461
1604.409058, 15337.512695
1604.709106, 15265.851562
1605.009155, 15289.285156
1605.309204, 15380.719727
1605.609253, 15353.314453
1605.909302, 15391.635742
1606.209351, 15461.695312
1606.509399, 15545.397461
1606.809448, 15741.652344
1607.109497, 15571.908203
1607.409546, 15633.839844
1607.709595, 15679.118164
1608.009644, 15691.460938
1608.309692, 15918.159180
1608.609741, 15976.981445
1608.909790, 15825.546875
1609.209839, 15618.248047
1609.509888, 15777.294922
1609.809937, 15785.712891
1610.109985, 15481.166016
1610.410034, 15377.069336
1610.710083, 15368.466797
1611.010132, 15295.917969
1611.310181, 15130.195312
1611.610229, 15189.846680
1611.910278, 15009.777344
1612.210327, 15094.965820
1612.510376, 15135.199219
1612.810425, 15131.554688
1613.110474, 14954.408203
1613.410522, 15093.037109
1613.710571, 14942.309570
1614.010620, 14963.440430
1614.310669, 15063.283203
1614.610718, 15073.922852
1614.910767, 14980.667969
1615.210815, 15086.931641
1615.510864, 14935.234375
1615.810913, 15032.325195
1616.110962, 15141.799805
1616.411011, 15058.171875
1616.711060, 15178.710938
1617.011108, 15283.625000
1617.311157, 15206.220703
1617.611206, 15304.442383
1617.911255, 15372.198242
1618.211304, 15223.700195
1618.511353, 15301.568359
1618.811401, 15511.661133
1619.111450, 15613.027344
1619.411499, 15727.645508
1619.711548, 15690.253906
1620.011597, 15990.916016
1620.311646, 16031.747070
1620.611694, 16153.325195
1620.911743, 16031.753906
1621.211792, 15969.826172
1621.511841, 16113.827148
1621.811890, 16312.310547
1622.111938, 16259.177734
1622.411987, 16516.603516
1622.712036, 16482.619141
1623.012085, 16522.121094
1623.312134, 16574.103516
1623.612183, 16694.310547
1623.912231, 16799.324219
1624.212280, 16989.160156
1624.512329, 17054.599609
1624.812378, 17142.681641
1625.112427, 17147.609375
1625.412476, 17115.236328
1625.712524, 17311.345703
1626.012573, 17082.121094
1626.312622, 17149.310547
1626.612671, 17166.199219
1626.912720, 17233.781250
1627.212769, 17097.035156
1627.512817, 17313.236328
1627.812866, 17157.238281
1628.112915, 17194.369141
1628.412964, 17091.496094
1628.713013, 17188.386719
1629.013062, 16685.341797
1629.313110, 16546.097656
1629.613159, 17014.896484
1629.913208, 16901.857422
1630.213257, 17012.671875
1630.513306, 16893.134766
1630.813354, 16808.380859
1631.113403, 16739.457031
1631.413452, 16676.642578
1631.713501, 16724.175781
1632.013550, 16455.894531
1632.313599, 16601.066406
1632.613647, 16544.095703
1632.913696, 16399.441406
1633.213745, 16520.935547
1633.513794, 16387.164062
1633.813843, 16364.166016
1634.113892, 16294.264648
1634.413940, 16159.013672
1634.713989, 16249.502930
1635.014038, 16230.360352
1635.314087, 16213.152344
1635.614136, 16072.162109
1635.914185, 16249.663086
1636.214233, 16119.942383
1636.514282, 16120.529297
1636.814331, 16175.837891
1637.114380, 15998.091797
1637.414429, 16085.880859
1637.714478, 15904.348633
1638.014526, 15968.392578
1638.314575, 15795.603516
1638.614624, 15903.835938
1638.914673, 16017.214844
1639.214722, 15773.934570
1639.514771, 15809.521484
1639.814819, 15651.199219
1640.114868, 15694.467773
1640.414917, 15430.767578
1640.714966, 15756.094727
1641.015015, 15667.790039
1641.315063, 15576.525391
1641.615112, 15505.832031
1641.915161, 15430.590820
1642.215210, 15443.158203
1642.515259, 15607.485352
1642.815308, 15520.583984
1643.115356, 15457.167969
1643.415405, 15468.802734
1643.715454, 15487.419922
1644.015503, 15587.222656
1644.315552, 15661.777344
1644.615601, 15733.670898
1644.915649, 15612.808594
1645.215698, 15577.106445
1645.515747, 15663.339844
1645.815796, 15762.928711
1646.115845, 15841.735352
1646.415894, 15873.944336
1646.715942, 15856.927734
1647.015991, 16028.156250
1647.316040, 16157.441406
1647.616089, 16132.135742
1647.916138, 16050.951172
1648.216187, 15915.098633
1648.516235, 15947.184570
1648.816284, 16019.182617
1649.116333, 15999.115234
1649.416382, 15929.473633
1649.716431, 15877.880859
1650.016479, 15965.689453
1650.316528, 16108.903320
1650.616577, 16144.697266
1650.916626, 16075.045898
1651.216675, 15888.976562
1651.516724, 15970.711914
1651.816772, 16030.028320
1652.116821, 15748.820312
1652.416870, 15766.227539
1652.716919, 15735.891602
1653.016968, 15658.212891
1653.317017, 15572.023438
1653.617065, 15619.147461
1653.917114, 15413.738281
1654.217163, 15620.815430
1654.517212, 15433.429688
1654.817261, 15410.875977
1655.117310, 15226.458008
1655.417358, 15218.080078
1655.717407, 15350.739258
1656.017456, 15112.081055
1656.317505, 15103.186523
1656.617554, 15061.243164
1656.917603, 15046.037109
1657.217651, 15085.449219
1657.517700, 14914.848633
1657.817749, 14792.849609
1658.117798, 14648.211914
1658.417847, 14643.122070
1658.717896, 14772.039062
1659.017944, 14821.498047
1659.317993, 14733.496094
1659.618042, 14484.118164
1659.918091, 14320.875000
1660.218140, 14421.199219
1660.518188, 14229.315430
1660.818237, 13979.022461
1661.118286, 13625.062500
1661.418335, 14131.447266
1661.718384, 14374.724609
1662.018433, 14299.884766
1662.318481, 14230.252930
1662.618530, 14256.669922
1662.918579, 14150.997070
1663.218628, 14145.929688
1663.518677, 14307.013672
1663.818726, 14183.245117
1664.118774, 14204.961914
1664.418823, 14176.476562
1664.718872, 13880.477539
1665.018921, 13895.122070
1665.318970, 13856.604492
1665.619019, 13890.775391
1665.919067, 13785.127930
1666.219116, 13773.058594
1666.519165, 13863.833984
1666.819214, 13984.516602
1667.119263, 13877.759766
1667.419312, 13934.310547
1667.719360, 13819.951172
1668.019409, 13782.199219
1668.319458, 13544.355469
1668.619507, 13632.093750
1668.919556, 13673.275391
1669.219604, 13522.719727
1669.519653, 13565.136719
1669.819702, 13504.506836
1670.119751, 13493.051758
1670.419800, 13665.158203
1670.719849, 13564.258789
1671.019897, 13504.540039
1671.319946, 13383.697266
1671.619995, 13281.910156
1671.920044, 13331.172852
1672.220093, 13367.276367
1672.520142, 13286.966797
1672.820190, 13304.613281
1673.120239, 13287.775391
1673.420288, 13191.628906
1673.720337, 13231.833984
1674.020386, 13166.230469
1674.320435, 13187.877930
1674.620483, 13288.384766
1674.920532, 13205.192383
1675.220581, 12995.982422
1675.520630, 13019.578125
1675.820679, 13045.713867
1676.120728, 12996.201172
1676.420776, 13023.486328
1676.720825, 13235.045898
1677.020874, 13063.747070
1677.320923, 13194.795898
1677.620972, 13061.535156
1677.921021, 13073.416992
1678.221069, 13018.095703
1678.521118, 12998.785156
1678.821167, 13166.547852
1679.121216, 13025.774414
1679.421265, 13075.578125
1679.721313, 13067.312500
1680.021362, 12948.685547
1680.321411, 13163.591797
1680.621460, 13217.953125
1680.921509, 13007.398438
1681.221558, 12946.096680
1681.521606, 12932.901367
1681.821655, 12761.330078
1682.121704, 12822.615234
1682.421753, 12804.724609
1682.721802, 12738.030273
1683.021851, 12634.322266
1683.321899, 12633.581055
1683.621948, 12739.484375
1683.921997, 12682.203125
1684.222046, 12614.309570
1684.522095, 12672.592773
1684.822144, 12516.216797
1685.122192, 12732.055664
1685.422241, 12600.111328
1685.722290, 12616.516602
1686.022339, 12723.548828
1686.322388, 12667.836914
1686.622437, 12449.019531
1686.922485, 12380.067383
1687.222534, 12441.087891
1687.522583, 12320.664062
1687.822632, 12375.341797
1688.122681, 12403.097656
1688.422729, 12471.550781
1688.722778, 12259.525391
1689.022827, 12341.097656
1689.322876, 12248.875977
1689.622925, 12419.163086
1689.922974, 12231.451172
1690.223022, 12245.622070
1690.523071, 12518.570312
1690.823120, 12410.108398
1691.123169, 12304.053711
1691.423218, 12275.992188
1691.723267, 12162.850586
1692.023315, 12283.608398
1692.323364, 12356.447266
1692.623413, 12390.315430
1692.923462, 12262.914062
1693.223511, 12308.939453
1693.523560, 12308.447266
1693.823608, 12196.163086
1694.123657, 12530.033203
1694.423706, 12422.788086
1694.723755, 12491.389648
1695.023804, 12365.066406
1695.323853, 12348.888672
1695.623901, 12416.268555
1695.923950, 12359.593750
1696.223999, 12333.713867
1696.524048, 12349.955078
1696.824097, 12377.596680
1697.124146, 12051.890625
1697.424194, 12156.681641
1697.724243, 12159.240234
1698.024292, 12125.845703
1698.324341, 12225.549805
1698.624390, 12204.894531
1698.924438, 12392.648438
1699.224487, 12348.015625
1699.524536, 12409.344727
1699.824585, 12346.356445
1700.124634, 12292.405273
1700.424683, 11996.361328
1700.724731, 12170.456055
1701.024780, 12234.781250
1701.324829, 12192.647461
1701.624878, 12284.602539
1701.924927, 12195.724609
1702.224976, 12185.541016
1702.525024, 12169.265625
1702.825073, 11968.681641
1703.125122, 12079.382812
1703.425171, 12087.241211
1703.725220, 12054.259766
1704.025269, 11993.379883
1704.325317, 12018.578125
1704.625366, 11943.536133
1704.925415, 12064.799805
1705.225464, 12033.248047
1705.525513, 12099.199219
1705.825562, 11873.567383
1706.125610, 11791.725586
1706.425659, 11723.339844
1706.725708, 11776.609375
1707.025757, 11919.814453
1707.325806, 11990.468750
1707.625854, 11959.059570
1707.925903, 12062.098633
1708.225952, 11875.036133
1708.526001, 11908.067383
1708.826050, 11864.846680
1709.126099, 11931.106445
1709.426147, 11964.503906
1709.726196, 12001.148438
1710.026245, 12002.740234
1710.326294, 11853.298828
1710.626343, 11725.799805
1710.926392, 11916.470703
1711.226440, 11813.464844
1711.526489, 11708.585938
1711.826538, 11864.858398
1712.126587, 11872.334961
1712.426636, 11814.719727
1712.726685, 11730.485352
1713.026733, 11668.811523
1713.326782, 11669.863281
1713.626831, 11723.064453
1713.926880, 11679.970703
1714.226929, 11778.139648
1714.526978, 11819.846680
1714.827026, 11727.077148
1715.127075, 11955.067383
1715.427124, 11730.179688
1715.727173, 11899.563477
1716.027222, 11908.446289
1716.327271, 11796.043945
1716.627319, 11825.961914
1716.927368, 11777.575195
1717.227417, 11848.246094
1717.527466, 11746.261719
1717.827515, 11778.659180
1718.127563, 11860.256836
1718.427612, 11921.049805
1718.727661, 11837.616211
1719.027710, 11877.458984
1719.327759, 11914.875977
1719.627808, 11723.809570
1719.927856, 11747.892578
1720.227905, 11726.207031
1720.527954, 11827.859375
1720.828003, 11778.538086
1721.128052, 11569.850586
1721.428101, 11742.552734
1721.728149, 11791.658203
1722.028198, 11626.497070
1722.328247, 11609.730469
1722.628296, 11653.852539
1722.928345, 11555.451172
1723.228394, 11454.640625
1723.528442, 11554.324219
1723.828491, 11570.262695
1724.128540, 11614.025391
1724.428589, 11626.270508
1724.728638, 11572.688477
1725.028687, 11530.333984
1725.328735, 11341.743164
1725.628784, 11436.974609
1725.928833, 11416.501953
1726.228882, 11318.672852
1726.528931, 11424.477539
1726.828979, 11283.689453
1727.129028, 11255.170898
1727.429077, 11320.691406
1727.729126, 11207.845703
1728.029175, 11229.828125
1728.329224, 11294.912109
1728.629272, 11085.101562
1728.929321, 11141.285156
1729.229370, 11134.619141
1729.529419, 11041.673828
1729.829468, 11088.833008
1730.129517, 11105.627930
1730.429565, 11016.882812
1730.729614, 11125.189453
1731.029663, 11091.244141
1731.329712, 10997.635742
1731.629761, 11031.186523
1731.929810, 11143.847656
1732.229858, 11078.335938
1732.529907, 11176.073242
1732.829956, 11063.955078
1733.130005, 11006.019531
1733.430054, 10956.375000
1733.730103, 10920.148438
1734.030151, 10882.364258
1734.330200, 11132.901367
1734.630249, 10978.235352
1734.930298, 11097.940430
1735.230347, 10886.964844
1735.530396, 10849.876953
1735.830444, 10802.770508
1736.130493, 10742.909180
1736.430542, 10825.408203
1736.730591, 10856.875977
1737.030640, 10874.808594
1737.330688, 10906.150391
1737.630737, 10774.952148
1737.930786, 10739.719727
1738.230835, 10777.291992
1738.530884, 10842.110352
1738.830933, 10652.557617
1739.130981, 10660.266602
1739.431030, 10765.007812
1739.731079, 10607.177734
1740.031128, 10640.743164
1740.331177, 10672.350586
1740.631226, 10582.125000
1740.931274, 10581.689453
1741.231323, 10500.670898
1741.531372, 10541.759766
1741.831421, 10663.896484
1742.131470, 10474.550781
1742.431519, 10583.830078
1742.731567, 10378.803711
1743.031616, 10441.896484
1743.331665, 10141.722656
1743.631714, 10273.147461
1743.931763, 10391.417969
1744.231812, 10303.761719
1744.531860, 10410.984375
1744.831909, 10423.559570
1745.131958, 10365.837891
1745.432007, 10419.957031
1745.732056, 10357.654297
1746.032104, 10203.138672
1746.332153, 10071.843750
1746.632202, 10132.081055
1746.932251, 10197.142578
1747.232300, 10071.624023
1747.532349, 10197.732422
1747.832397, 10048.579102
1748.132446, 9984.209961
1748.432495, 9895.179688
1748.732544, 9971.272461
1749.032593, 9971.820312
1749.332642, 10110.373047
1749.632690, 9880.765625
1749.932739, 9978.675781
1750.232788, 10074.086914
1750.532837, 10187.994141
1750.832886, 9875.135742
1751.132935, 10000.018555
1751.432983, 10043.023438
1751.733032, 10052.221680
1752.033081, 10082.068359
1752.333130, 10010.558594
1752.633179, 9885.067383
1752.933228, 9807.995117
1753.233276, 9765.799805
1753.533325, 9651.146484
1753.833374, 9860.849609
1754.133423, 9844.206055
1754.433472, 9586.802734
1754.733521, 9524.726562
1755.033569, 9750.990234
1755.333618, 9687.987305
1755.633667, 9769.714844
1755.933716, 9636.765625
1756.233765, 9862.808594
1756.533813, 9788.069336
1756.833862, 9747.328125
1757.133911, 9883.347656
1757.433960, 9745.499023
1757.734009, 9589.659180
1758.034058, 9676.250000
1758.334106, 9464.888672
1758.634155, 9366.506836
1758.934204, 9380.748047
1759.234253, 9312.619141
1759.534302, 9572.419922
1759.834351, 9482.989258
1760.134399, 9631.441406
1760.434448, 9516.596680
1760.734497, 9530.748047
1761.034546, 9507.775391
1761.334595, 9488.607422
1761.634644, 9379.999023
1761.934692, 9332.230469
1762.234741, 9246.607422
1762.534790, 9287.521484
1762.834839, 9278.945312
1763.134888, 9422.111328
1763.434937, 9245.898438
1763.734985, 9431.356445
1764.035034, 9255.959961
1764.335083, 9357.379883
1764.635132, 9184.761719
1764.935181, 9281.075195
1765.235229, 9363.990234
1765.535278, 9226.557617
1765.835327, 9244.402344
1766.135376, 9411.802734
1766.435425, 9239.389648
1766.735474, 9152.284180
1767.035522, 9160.810547
1767.335571, 9200.602539
1767.635620, 9259.640625
1767.935669, 9051.709961
1768.235718, 8958.564453
1768.535767, 9142.796875
1768.835815, 8989.275391
1769.135864, 9177.373047
1769.435913, 9127.483398
1769.735962, 9079.677734
1770.036011, 8792.262695
1770.336060, 8963.938477
1770.636108, 9008.465820
1770.936157, 9055.401367
1771.236206, 9094.430664
1771.536255, 9198.334961
1771.836304, 9125.453125
1772.136353, 8962.328125
1772.436401, 8919.575195
1772.736450, 8954.862305
1773.036499, 9008.228516
1773.336548, 8830.244141
1773.636597, 8902.155273
1773.936646, 8997.564453
1774.236694, 8745.064453
1774.536743, 8963.886719
1774.836792, 8969.950195
1775.136841, 8922.930664
#ENDOFDATA   : End Of Data and File
