#FORMAT	     : EMSA/MAS Spectral Data File
#VERSION     : 1.0
#TITLE       : BN_LowLoss_M__Cheynet_91
#DATE        : 
#TIME        : 
#OWNER       : eelsdatabase.net
#NPOINTS     : 837
#NCOLUMNS    : 1
#XUNITS      : eV
#YUNITS      : 
#DATATYPE    : XY
#XPERCHAN    : 0.0968
#OFFSET      : -10.052
#SIGNALTYPE  : ELS
#SPECTRUM    : Spectral Data Starts Here
-10.052, 14.000
-9.9552, 13.000
-9.8576, 13.000
-9.7600, 13.000
-9.6624, 14.000
-9.5648, 16.000
-9.4672, 16.000
-9.3696, 16.000
-9.2720, 16.000
-9.1744, 17.000
-9.0768, 17.000
-8.9792, 18.000
-8.8816, 19.999
-8.7840, 19.999
-8.6864, 19.000
-8.5888, 18.000
-8.4912, 18.000
-8.3936, 19.000
-8.2960, 20.999
-8.1984, 20.999
-8.1008, 19.999
-8.0032, 19.000
-7.9056, 19.000
-7.8080, 19.000
-7.7104, 18.000
-7.6128, 18.000
-7.5152, 19.000
-7.4176, 20.999
-7.3200, 24.000
-7.2224, 24.999
-7.1248, 26.999
-7.0272, 28.999
-6.9296, 28.999
-6.8320, 28.999
-6.7344, 28.999
-6.6368, 29.999
-6.5392, 32.000
-6.4416, 33.000
-6.3440, 33.000
-6.2464, 34.000
-6.1488, 36.000
-6.0512, 38.000
-5.9536, 41.000
-5.8560, 45.000
-5.7584, 48.999
-5.6608, 52.999
-5.5632, 54.999
-5.4656, 54.999
-5.3680, 54.999
-5.2704, 54.999
-5.1728, 57.999
-5.0752, 61.000
-4.9776, 66.000
-4.8800, 70.999
-4.7824, 73.999
-4.6848, 77.999
-4.5872, 82.999
-4.4896, 87.999
-4.3920, 93.999
-4.2944, 98.999
-4.1968, 104.00
-4.0992, 109.99
-4.0016, 117.99
-3.9040, 125.99
-3.8064, 136.99
-3.7088, 149.99
-3.6112, 164.00
-3.5136, 178.99
-3.4160, 193.00
-3.3184, 205.00
-3.2208, 216.99
-3.1232, 229.99
-3.0256, 247.99
-2.9280, 270.99
-2.8304, 298.99
-2.7328, 330.99
-2.6352, 366.99
-2.5376, 404.99
-2.4400, 445.99
-2.3424, 491.99
-2.2448, 548.00
-2.1472, 619.00
-2.0496, 719.00
-1.9520, 879.00
-1.8544, 1166.0
-1.7568, 1722.0
-1.6592, 2821.0
-1.5616, 4981.0
-1.4640, 9105.0
-1.3664, 16688
-1.2688, 30091
-1.1712, 52757
-1.0736, 88979
-0.97600, 1.4292e+05
-0.87840, 2.1734e+05
-0.78080, 3.1274e+05
-0.68320, 4.2708e+05
-0.58560, 5.5486e+05
-0.48800, 6.8614e+05
-0.39040, 8.0748e+05
-0.29280, 9.0581e+05
-0.19520, 9.7278e+05
-0.097604, 1.0061e+06
-5.7200e-06, 1.0075e+06
0.097595, 9.7947e+05
0.19519, 9.2397e+05
0.29279, 8.4306e+05
0.39039, 7.4091e+05
0.48799, 6.2527e+05
0.58559, 5.0673e+05
0.68319, 3.9575e+05
0.78079, 2.9932e+05
0.87839, 2.1984e+05
0.97599, 1.5659e+05
1.0735, 1.0794e+05
1.1711, 72287
1.2687, 47788
1.3663, 32009
1.4639, 22213
1.5615, 16060
1.6591, 12018
1.7567, 9271.0
1.8543, 7395.0
1.9519, 6123.0
2.0495, 5251.0
2.1471, 4639.0
2.2447, 4200.0
2.3423, 3889.0
2.4399, 3671.0
2.5375, 3517.0
2.6351, 3398.0
2.7327, 3296.0
2.8303, 3209.0
2.9279, 3140.0
3.0255, 3089.0
3.1231, 3051.0
3.2207, 3016.0
3.3183, 2980.0
3.4159, 2945.0
3.5135, 2912.0
3.6111, 2883.0
3.7087, 2856.0
3.8063, 2832.0
3.9039, 2810.0
4.0016, 2790.0
4.0992, 2767.0
4.1967, 2739.0
4.2943, 2710.0
4.3920, 2684.0
4.4896, 2667.0
4.5871, 2658.0
4.6847, 2655.0
4.7824, 2652.0
4.8800, 2645.0
4.9775, 2633.0
5.0751, 2616.0
5.1728, 2598.0
5.2704, 2585.0
5.3679, 2587.0
5.4655, 2610.0
5.5632, 2659.0
5.6608, 2737.0
5.7583, 2843.0
5.8559, 2976.0
5.9536, 3134.0
6.0512, 3312.0
6.1487, 3504.0
6.2463, 3703.0
6.3440, 3900.0
6.4416, 4092.0
6.5391, 4280.0
6.6367, 4471.0
6.7344, 4668.0
6.8320, 4861.0
6.9295, 5034.0
7.0271, 5175.0
7.1248, 5281.0
7.2224, 5364.0
7.3199, 5433.0
7.4175, 5489.0
7.5152, 5531.0
7.6128, 5555.0
7.7103, 5564.0
7.8079, 5561.0
7.9056, 5549.0
8.0032, 5524.0
8.1008, 5478.0
8.1984, 5407.0
8.2960, 5315.0
8.3936, 5212.0
8.4912, 5107.0
8.5888, 5005.0
8.6864, 4909.0
8.7840, 4823.0
8.8816, 4749.0
8.9792, 4684.0
9.0768, 4624.0
9.1744, 4564.0
9.2720, 4505.0
9.3696, 4447.0
9.4672, 4394.0
9.5648, 4344.0
9.6624, 4293.0
9.7600, 4240.0
9.8576, 4188.0
9.9552, 4143.0
10.052, 4116.0
10.150, 4118.0
10.248, 4152.0
10.345, 4211.0
10.443, 4280.0
10.540, 4349.0
10.638, 4414.0
10.736, 4476.0
10.833, 4537.0
10.931, 4592.0
11.028, 4633.0
11.126, 4658.0
11.224, 4673.0
11.321, 4689.0
11.419, 4712.0
11.516, 4747.0
11.614, 4790.0
11.712, 4833.0
11.809, 4865.0
11.907, 4879.0
12.004, 4872.0
12.102, 4849.0
12.200, 4817.0
12.297, 4782.0
12.395, 4745.0
12.492, 4710.0
12.590, 4685.0
12.688, 4675.0
12.785, 4679.0
12.883, 4689.0
12.980, 4701.0
13.078, 4709.0
13.176, 4709.0
13.273, 4693.0
13.371, 4660.0
13.468, 4617.0
13.566, 4580.0
13.664, 4561.0
13.761, 4566.0
13.859, 4589.0
13.956, 4619.0
14.054, 4647.0
14.152, 4670.0
14.249, 4692.0
14.347, 4721.0
14.444, 4760.0
14.542, 4809.0
14.640, 4867.0
14.737, 4932.0
14.835, 5002.0
14.932, 5074.0
15.030, 5151.0
15.128, 5237.0
15.225, 5336.0
15.323, 5444.0
15.420, 5554.0
15.518, 5658.0
15.616, 5756.0
15.713, 5860.0
15.811, 5984.0
15.908, 6132.0
16.006, 6299.0
16.104, 6468.0
16.201, 6627.0
16.299, 6777.0
16.396, 6924.0
16.494, 7075.0
16.592, 7230.0
16.689, 7387.0
16.787, 7546.0
16.884, 7707.0
16.982, 7869.0
17.080, 8033.0
17.177, 8193.0
17.275, 8343.0
17.372, 8478.0
17.470, 8600.0
17.568, 8714.0
17.665, 8829.0
17.763, 8953.0
17.860, 9090.0
17.958, 9241.0
18.056, 9395.0
18.153, 9533.0
18.251, 9643.0
18.348, 9727.0
18.446, 9795.0
18.544, 9862.0
18.641, 9928.0
18.739, 9984.0
18.836, 10020
18.934, 10033
19.032, 10035
19.129, 10047
19.227, 10088
19.324, 10161
19.422, 10251
19.520, 10326
19.617, 10365
19.715, 10363
19.812, 10336
19.910, 10307
20.008, 10298
20.105, 10322
20.203, 10386
20.300, 10484
20.398, 10594
20.496, 10697
20.593, 10778
20.691, 10832
20.788, 10857
20.886, 10853
20.984, 10834
21.081, 10817
21.179, 10825
21.276, 10872
21.374, 10958
21.472, 11075
21.569, 11203
21.667, 11317
21.764, 11395
21.862, 11434
21.960, 11451
22.057, 11477
22.155, 11538
22.252, 11642
22.350, 11772
22.448, 11900
22.545, 11996
22.643, 12052
22.740, 12081
22.838, 12112
22.936, 12165
23.033, 12248
23.131, 12356
23.228, 12484
23.326, 12618
23.424, 12740
23.521, 12833
23.619, 12899
23.716, 12959
23.814, 13040
23.912, 13150
24.009, 13264
24.107, 13347
24.204, 13373
24.302, 13350
24.400, 13310
24.497, 13285
24.595, 13287
24.692, 13307
24.790, 13331
24.888, 13348
24.985, 13354
25.083, 13346
25.180, 13321
25.278, 13278
25.376, 13221
25.473, 13162
25.571, 13112
25.668, 13075
25.766, 13049
25.864, 13030
25.961, 13015
26.059, 13000
26.156, 12979
26.254, 12944
26.352, 12883
26.449, 12790
26.547, 12668
26.644, 12532
26.742, 12404
26.840, 12304
26.937, 12237
27.035, 12190
27.132, 12142
27.230, 12073
27.328, 11972
27.425, 11845
27.523, 11708
27.620, 11583
27.718, 11485
27.816, 11416
27.913, 11370
28.011, 11327
28.108, 11267
28.206, 11183
28.304, 11084
28.401, 10994
28.499, 10925
28.596, 10869
28.694, 10809
28.792, 10729
28.889, 10629
28.987, 10518
29.084, 10409
29.182, 10306
29.280, 10208
29.377, 10107
29.475, 9998.0
29.572, 9876.0
29.670, 9745.0
29.768, 9610.0
29.865, 9485.0
29.963, 9385.0
30.060, 9317.0
30.158, 9277.0
30.256, 9244.0
30.353, 9191.0
30.451, 9105.0
30.548, 8994.0
30.646, 8880.0
30.744, 8788.0
30.841, 8724.0
30.939, 8682.0
31.036, 8643.0
31.134, 8588.0
31.232, 8506.0
31.329, 8400.0
31.427, 8280.0
31.524, 8166.0
31.622, 8078.0
31.720, 8021.0
31.817, 7985.0
31.915, 7950.0
32.012, 7900.0
32.110, 7835.0
32.208, 7769.0
32.305, 7719.0
32.403, 7690.0
32.500, 7674.0
32.598, 7651.0
32.696, 7609.0
32.793, 7547.0
32.891, 7479.0
32.988, 7416.0
33.086, 7361.0
33.184, 7308.0
33.281, 7249.0
33.379, 7182.0
33.476, 7116.0
33.574, 7058.0
33.672, 7014.0
33.769, 6985.0
33.867, 6969.0
33.964, 6960.0
34.062, 6945.0
34.160, 6918.0
34.257, 6879.0
34.355, 6836.0
34.452, 6795.0
34.550, 6755.0
34.648, 6712.0
34.745, 6668.0
34.843, 6625.0
34.940, 6590.0
35.038, 6562.0
35.136, 6540.0
35.233, 6522.0
35.331, 6509.0
35.428, 6497.0
35.526, 6480.0
35.624, 6451.0
35.721, 6405.0
35.819, 6345.0
35.916, 6277.0
36.014, 6210.0
36.112, 6155.0
36.209, 6119.0
36.307, 6100.0
36.404, 6086.0
36.502, 6060.0
36.600, 6018.0
36.697, 5969.0
36.795, 5922.0
36.892, 5879.0
36.990, 5839.0
37.088, 5802.0
37.185, 5770.0
37.283, 5743.0
37.380, 5721.0
37.478, 5705.0
37.576, 5694.0
37.673, 5682.0
37.771, 5666.0
37.868, 5642.0
37.966, 5616.0
38.064, 5595.0
38.161, 5579.0
38.259, 5564.0
38.356, 5543.0
38.454, 5510.0
38.552, 5464.0
38.649, 5409.0
38.747, 5353.0
38.844, 5307.0
38.942, 5278.0
39.040, 5264.0
39.137, 5256.0
39.235, 5242.0
39.332, 5215.0
39.430, 5179.0
39.528, 5139.0
39.625, 5100.0
39.723, 5065.0
39.820, 5032.0
39.918, 4999.0
40.016, 4961.0
40.113, 4913.0
40.211, 4852.0
40.308, 4786.0
40.406, 4721.0
40.504, 4665.0
40.601, 4620.0
40.699, 4586.0
40.796, 4564.0
40.894, 4552.0
40.992, 4543.0
41.089, 4529.0
41.187, 4504.0
41.284, 4471.0
41.382, 4434.0
41.480, 4398.0
41.577, 4367.0
41.675, 4337.0
41.772, 4309.0
41.870, 4281.0
41.968, 4251.0
42.065, 4216.0
42.163, 4171.0
42.260, 4113.0
42.358, 4049.0
42.456, 3989.0
42.553, 3939.0
42.651, 3901.0
42.748, 3866.0
42.846, 3829.0
42.944, 3792.0
43.041, 3767.0
43.139, 3760.0
43.236, 3771.0
43.334, 3787.0
43.432, 3794.0
43.529, 3784.0
43.627, 3761.0
43.724, 3735.0
43.822, 3715.0
43.920, 3702.0
44.017, 3695.0
44.115, 3696.0
44.212, 3700.0
44.310, 3703.0
44.408, 3699.0
44.505, 3688.0
44.603, 3674.0
44.700, 3662.0
44.798, 3655.0
44.896, 3652.0
44.993, 3651.0
45.091, 3652.0
45.188, 3658.0
45.286, 3668.0
45.384, 3682.0
45.481, 3695.0
45.579, 3700.0
45.676, 3687.0
45.774, 3653.0
45.872, 3607.0
45.969, 3565.0
46.067, 3541.0
46.164, 3534.0
46.262, 3529.0
46.360, 3516.0
46.457, 3494.0
46.555, 3472.0
46.652, 3459.0
46.750, 3457.0
46.848, 3460.0
46.945, 3462.0
47.043, 3459.0
47.140, 3450.0
47.238, 3436.0
47.336, 3421.0
47.433, 3405.0
47.531, 3388.0
47.628, 3367.0
47.726, 3343.0
47.824, 3326.0
47.921, 3328.0
48.019, 3350.0
48.116, 3377.0
48.214, 3391.0
48.312, 3383.0
48.409, 3354.0
48.507, 3316.0
48.604, 3281.0
48.702, 3259.0
48.800, 3252.0
48.897, 3260.0
48.995, 3273.0
49.092, 3283.0
49.190, 3281.0
49.288, 3267.0
49.385, 3242.0
49.483, 3209.0
49.580, 3174.0
49.678, 3144.0
49.776, 3125.0
49.873, 3118.0
49.971, 3120.0
50.068, 3127.0
50.166, 3136.0
50.264, 3148.0
50.361, 3160.0
50.459, 3167.0
50.556, 3162.0
50.654, 3145.0
50.752, 3119.0
50.849, 3094.0
50.947, 3075.0
51.044, 3064.0
51.142, 3058.0
51.240, 3050.0
51.337, 3034.0
51.435, 3012.0
51.532, 2988.0
51.630, 2969.0
51.728, 2960.0
51.825, 2960.0
51.923, 2966.0
52.020, 2973.0
52.118, 2973.0
52.216, 2964.0
52.313, 2949.0
52.411, 2933.0
52.508, 2918.0
52.606, 2904.0
52.704, 2890.0
52.801, 2877.0
52.899, 2863.0
52.996, 2850.0
53.094, 2839.0
53.192, 2833.0
53.289, 2836.0
53.387, 2845.0
53.484, 2854.0
53.582, 2857.0
53.680, 2854.0
53.777, 2849.0
53.875, 2844.0
53.972, 2838.0
54.070, 2824.0
54.168, 2802.0
54.265, 2773.0
54.363, 2745.0
54.460, 2722.0
54.558, 2704.0
54.656, 2692.0
54.753, 2684.0
54.851, 2676.0
54.948, 2669.0
55.046, 2662.0
55.144, 2650.0
55.241, 2629.0
55.339, 2600.0
55.436, 2573.0
55.534, 2559.0
55.632, 2561.0
55.729, 2572.0
55.827, 2584.0
55.924, 2589.0
56.022, 2586.0
56.120, 2580.0
56.217, 2572.0
56.315, 2566.0
56.412, 2561.0
56.510, 2557.0
56.608, 2552.0
56.705, 2545.0
56.803, 2537.0
56.900, 2528.0
56.998, 2520.0
57.096, 2510.0
57.193, 2494.0
57.291, 2477.0
57.388, 2464.0
57.486, 2458.0
57.584, 2458.0
57.681, 2456.0
57.779, 2445.0
57.876, 2422.0
57.974, 2391.0
58.072, 2362.0
58.169, 2344.0
58.267, 2342.0
58.364, 2353.0
58.462, 2370.0
58.560, 2386.0
58.657, 2391.0
58.755, 2382.0
58.852, 2359.0
58.950, 2328.0
59.048, 2298.0
59.145, 2276.0
59.243, 2261.0
59.340, 2250.0
59.438, 2241.0
59.536, 2232.0
59.633, 2223.0
59.731, 2216.0
59.828, 2210.0
59.926, 2208.0
60.024, 2210.0
60.121, 2213.0
60.219, 2213.0
60.316, 2204.0
60.414, 2185.0
60.512, 2158.0
60.609, 2129.0
60.707, 2104.0
60.804, 2090.0
60.902, 2089.0
61.000, 2096.0
61.097, 2104.0
61.195, 2104.0
61.292, 2096.0
61.390, 2084.0
61.488, 2076.0
61.585, 2077.0
61.683, 2086.0
61.780, 2095.0
61.878, 2099.0
61.976, 2094.0
62.073, 2083.0
62.171, 2069.0
62.268, 2060.0
62.366, 2056.0
62.464, 2057.0
62.561, 2056.0
62.659, 2053.0
62.756, 2048.0
62.854, 2043.0
62.952, 2038.0
63.049, 2030.0
63.147, 2020.0
63.244, 2007.0
63.342, 1993.0
63.440, 1976.0
63.537, 1958.0
63.635, 1941.0
63.732, 1927.0
63.830, 1918.0
63.928, 1913.0
64.025, 1910.0
64.123, 1908.0
64.220, 1902.0
64.318, 1890.0
64.416, 1875.0
64.513, 1859.0
64.611, 1845.0
64.708, 1835.0
64.806, 1830.0
64.904, 1827.0
65.001, 1821.0
65.099, 1807.0
65.196, 1785.0
65.294, 1761.0
65.392, 1740.0
65.489, 1726.0
65.587, 1721.0
65.684, 1722.0
65.782, 1728.0
65.880, 1734.0
65.977, 1735.0
66.075, 1729.0
66.172, 1718.0
66.270, 1705.0
66.368, 1690.0
66.465, 1671.0
66.563, 1649.0
66.660, 1629.0
66.758, 1615.0
66.856, 1609.0
66.953, 1608.0
67.051, 1610.0
67.148, 1612.0
67.246, 1612.0
67.344, 1612.0
67.441, 1612.0
67.539, 1613.0
67.636, 1614.0
67.734, 1612.0
67.832, 1604.0
67.929, 1589.0
68.027, 1570.0
68.124, 1554.0
68.222, 1542.0
68.320, 1535.0
68.417, 1526.0
68.515, 1515.0
68.612, 1505.0
68.710, 1500.0
68.808, 1498.0
68.905, 1494.0
69.003, 1486.0
69.100, 1475.0
69.198, 1467.0
69.296, 1464.0
69.393, 1466.0
69.491, 1468.0
69.588, 1466.0
69.686, 1459.0
69.784, 1446.0
69.881, 1432.0
69.979, 1418.0
70.076, 1407.0
70.174, 1401.0
70.272, 1399.0
70.369, 1402.0
70.467, 1408.0
70.564, 1413.0
70.662, 1413.0
70.760, 1408.0
70.857, 1398.0
70.955, 1386.0
71.052, 1372.0
71.150, 1353.0
71.248, 1325.0
71.345, 1285.0
71.443, 1238.0
71.540, 1412.0
#ENDOFDATA   : End Of Data and File
