#FORMAT	     : EMSA/MAS Spectral Data File
#VERSION     : 1.0
#TITLE       : B4C_B_K_Otmane_Abidate_41
#DATE        : 
#TIME        : 
#OWNER       : eelsdatabase.net
#NPOINTS     : 1020
#NCOLUMNS    : 1
#XUNITS      : eV
#YUNITS      : 
#DATATYPE    : XY
#XPERCHAN    : 0.100006
#OFFSET      : 167.979996
#SIGNALTYPE  : ELS
#SPECTRUM    : Spectral Data Starts Here
167.979996, 25243.000000
168.080002, 25183.000000
168.180008, 25140.000000
168.280014, 25016.000000
168.380020, 25001.000000
168.480026, 25005.000000
168.580032, 24975.000000
168.680038, 24876.000000
168.780045, 24784.000000
168.880051, 24696.000000
168.980057, 24638.000000
169.080063, 24583.000000
169.180069, 24493.000000
169.280075, 24448.000000
169.380081, 24444.000000
169.480087, 24326.000000
169.580093, 24244.000000
169.680099, 24117.000000
169.780106, 23965.000000
169.880112, 23941.000000
169.980118, 23940.000000
170.080124, 23904.000000
170.180130, 23830.000000
170.280136, 23785.000000
170.380142, 23731.000000
170.480148, 23681.000000
170.580154, 23599.000000
170.680161, 23544.000000
170.780167, 23501.000000
170.880173, 23500.000000
170.980179, 23426.000000
171.080185, 23350.000000
171.180191, 23318.000000
171.280197, 23127.000000
171.380203, 23077.000000
171.480209, 23016.000000
171.580215, 22987.000000
171.680222, 22895.000000
171.780228, 22812.000000
171.880234, 22684.000000
171.980240, 22717.000000
172.080246, 22720.000000
172.180252, 22638.000000
172.280258, 22584.000000
172.380264, 22543.000000
172.480270, 22438.000000
172.580276, 22406.000000
172.680283, 22338.000000
172.780289, 22309.000000
172.880295, 22261.000000
172.980301, 22231.000000
173.080307, 22129.000000
173.180313, 22086.000000
173.280319, 22047.000000
173.380325, 22029.000000
173.480331, 21943.000000
173.580338, 21929.000000
173.680344, 21767.000000
173.780350, 21719.000000
173.880356, 21621.000000
173.980362, 21556.000000
174.080368, 21546.000000
174.180374, 21555.000000
174.280380, 21492.000000
174.380386, 21423.000000
174.480392, 21361.000000
174.580399, 21236.000000
174.680405, 21216.000000
174.780411, 21160.000000
174.880417, 21177.000000
174.980423, 21141.000000
175.080429, 21080.000000
175.180435, 21045.000000
175.280441, 21016.000000
175.380447, 20961.000000
175.480453, 20927.000000
175.580460, 20831.000000
175.680466, 20719.000000
175.780472, 20658.000000
175.880478, 20643.000000
175.980484, 20522.000000
176.080490, 20457.000000
176.180496, 20440.000000
176.280502, 20404.000000
176.380508, 20331.000000
176.480515, 20319.000000
176.580521, 20275.000000
176.680527, 20245.000000
176.780533, 20191.000000
176.880539, 20163.000000
176.980545, 20087.000000
177.080551, 20062.000000
177.180557, 20007.000000
177.280563, 19972.000000
177.380569, 19918.000000
177.480576, 19878.000000
177.580582, 19823.000000
177.680588, 19765.000000
177.780594, 19664.000000
177.880600, 19598.000000
177.980606, 19501.000000
178.080612, 19452.000000
178.180618, 19449.000000
178.280624, 19466.000000
178.380630, 19437.000000
178.480637, 19376.000000
178.580643, 19326.000000
178.680649, 19219.000000
178.780655, 19217.000000
178.880661, 19151.000000
178.980667, 19169.000000
179.080673, 19135.000000
179.180679, 19095.000000
179.280685, 19036.000000
179.380692, 18981.000000
179.480698, 18937.000000
179.580704, 18854.000000
179.680710, 18765.000000
179.780716, 18737.000000
179.880722, 18740.000000
179.980728, 18688.000000
180.080734, 18699.000000
180.180740, 18691.000000
180.280746, 18576.000000
180.380753, 18515.000000
180.480759, 18445.000000
180.580765, 18405.000000
180.680771, 18401.000000
180.780777, 18443.000000
180.880783, 18410.000000
180.980789, 18365.000000
181.080795, 18318.000000
181.180801, 18258.000000
181.280807, 18228.000000
181.380814, 18135.000000
181.480820, 18107.000000
181.580826, 18030.000000
181.680832, 17991.000000
181.780838, 17944.000000
181.880844, 17886.000000
181.980850, 17869.000000
182.080856, 17755.000000
182.180862, 17754.000000
182.280869, 17764.000000
182.380875, 17714.000000
182.480881, 17692.000000
182.580887, 17650.000000
182.680893, 17664.000000
182.780899, 17674.000000
182.880905, 17654.000000
182.980911, 17637.000000
183.080917, 17630.000000
183.180923, 17626.000000
183.280930, 17545.000000
183.380936, 17475.000000
183.480942, 17447.000000
183.580948, 17450.000000
183.680954, 17483.000000
183.780960, 17434.000000
183.880966, 17412.000000
183.980972, 17360.000000
184.080978, 17349.000000
184.180984, 17264.000000
184.280991, 17304.000000
184.380997, 17274.000000
184.481003, 17253.000000
184.581009, 17273.000000
184.681015, 17254.000000
184.781021, 17226.000000
184.881027, 17247.000000
184.981033, 17264.000000
185.081039, 17240.000000
185.181046, 17233.000000
185.281052, 17228.000000
185.381058, 17269.000000
185.481064, 17256.000000
185.581070, 17222.000000
185.681076, 17290.000000
185.781082, 17328.000000
185.881088, 17342.000000
185.981094, 17387.000000
186.081100, 17362.000000
186.181107, 17440.000000
186.281113, 17442.000000
186.381119, 17514.000000
186.481125, 17598.000000
186.581131, 17640.000000
186.681137, 17667.000000
186.781143, 17717.000000
186.881149, 17792.000000
186.981155, 17877.000000
187.081161, 17977.000000
187.181168, 18072.000000
187.281174, 18247.000000
187.381180, 18396.000000
187.481186, 18545.000000
187.581192, 18709.000000
187.681198, 18887.000000
187.781204, 18989.000000
187.881210, 19168.000000
187.981216, 19335.000000
188.081223, 19621.000000
188.181229, 19878.000000
188.281235, 20155.000000
188.381241, 20423.000000
188.481247, 20757.000000
188.581253, 21097.000000
188.681259, 21459.000000
188.781265, 21884.000000
188.881271, 22377.000000
188.981277, 22887.000000
189.081284, 23419.000000
189.181290, 24068.000000
189.281296, 24702.000000
189.381302, 25454.000000
189.481308, 26335.000000
189.581314, 27290.000000
189.681320, 28261.000000
189.781326, 29405.000000
189.881332, 30683.000000
189.981339, 32021.000000
190.081345, 33571.000000
190.181351, 35256.000000
190.281357, 36921.000000
190.381363, 38789.000000
190.481369, 40693.000000
190.581375, 42786.000000
190.681381, 44858.000000
190.781387, 46849.000000
190.881393, 49261.000000
190.981400, 51581.000000
191.081406, 53672.000000
191.181412, 55650.000000
191.281418, 57439.000000
191.381424, 58998.000000
191.481430, 60398.000000
191.581436, 61704.000000
191.681442, 62520.000000
191.781448, 63312.000000
191.881454, 63839.000000
191.981461, 63850.000000
192.081467, 63448.000000
192.181473, 63130.000000
192.281479, 62723.000000
192.381485, 62478.000000
192.481491, 62112.000000
192.581497, 61634.000000
192.681503, 61334.000000
192.781509, 60883.000000
192.881516, 60531.000000
192.981522, 59987.000000
193.081528, 59706.000000
193.181534, 59211.000000
193.281540, 59204.000000
193.381546, 59105.000000
193.481552, 59091.000000
193.581558, 59261.000000
193.681564, 59316.000000
193.781570, 59583.000000
193.881577, 59765.000000
193.981583, 59902.000000
194.081589, 60117.000000
194.181595, 60486.000000
194.281601, 60655.000000
194.381607, 60996.000000
194.481613, 61170.000000
194.581619, 61544.000000
194.681625, 61786.000000
194.781631, 62207.000000
194.881638, 62643.000000
194.981644, 63193.000000
195.081650, 63705.000000
195.181656, 64443.000000
195.281662, 64872.000000
195.381668, 65276.000000
195.481674, 65928.000000
195.581680, 66528.000000
195.681686, 67059.000000
195.781693, 67832.000000
195.881699, 68066.000000
195.981705, 68859.000000
196.081711, 69518.000000
196.181717, 70155.000000
196.281723, 70504.000000
196.381729, 71067.000000
196.481735, 71689.000000
196.581741, 72085.000000
196.681747, 72210.000000
196.781754, 73002.000000
196.881760, 73352.000000
196.981766, 73816.000000
197.081772, 74169.000000
197.181778, 74078.000000
197.281784, 74084.000000
197.381790, 74709.000000
197.481796, 74834.000000
197.581802, 74816.000000
197.681808, 74850.000000
197.781815, 75136.000000
197.881821, 75197.000000
197.981827, 75388.000000
198.081833, 75215.000000
198.181839, 75254.000000
198.281845, 75114.000000
198.381851, 75039.000000
198.481857, 75245.000000
198.581863, 75367.000000
198.681870, 75327.000000
198.781876, 75674.000000
198.881882, 75830.000000
198.981888, 75953.000000
199.081894, 76079.000000
199.181900, 76265.000000
199.281906, 76248.000000
199.381912, 76369.000000
199.481918, 76587.000000
199.581924, 76728.000000
199.681931, 76800.000000
199.781937, 76867.000000
199.881943, 76868.000000
199.981949, 76647.000000
200.081955, 76856.000000
200.181961, 77030.000000
200.281967, 77121.000000
200.381973, 77043.000000
200.481979, 77101.000000
200.581985, 76969.000000
200.681992, 76818.000000
200.781998, 76729.000000
200.882004, 77001.000000
200.982010, 76813.000000
201.082016, 76782.000000
201.182022, 76903.000000
201.282028, 76827.000000
201.382034, 76753.000000
201.482040, 76370.000000
201.582047, 76295.000000
201.682053, 76257.000000
201.782059, 76392.000000
201.882065, 76184.000000
201.982071, 76032.000000
202.082077, 75761.000000
202.182083, 75479.000000
202.282089, 75275.000000
202.382095, 75182.000000
202.482101, 75099.000000
202.582108, 75309.000000
202.682114, 75313.000000
202.782120, 75151.000000
202.882126, 75330.000000
202.982132, 75292.000000
203.082138, 75252.000000
203.182144, 75009.000000
203.282150, 74907.000000
203.382156, 75139.000000
203.482162, 74947.000000
203.582169, 75157.000000
203.682175, 74840.000000
203.782181, 74746.000000
203.882187, 74419.000000
203.982193, 74464.000000
204.082199, 74611.000000
204.182205, 74332.000000
204.282211, 74111.000000
204.382217, 74019.000000
204.482224, 73816.000000
204.582230, 73169.000000
204.682236, 72822.000000
204.782242, 72560.000000
204.882248, 72427.000000
204.982254, 72432.000000
205.082260, 72178.000000
205.182266, 71759.000000
205.282272, 71251.000000
205.382278, 70986.000000
205.482285, 70297.000000
205.582291, 69921.000000
205.682297, 69469.000000
205.782303, 68987.000000
205.882309, 68209.000000
205.982315, 67850.000000
206.082321, 67212.000000
206.182327, 66540.000000
206.282333, 65935.000000
206.382339, 65436.000000
206.482346, 64872.000000
206.582352, 64323.000000
206.682358, 63753.000000
206.782364, 62898.000000
206.882370, 62121.000000
206.982376, 61472.000000
207.082382, 60883.000000
207.182388, 60225.000000
207.282394, 59770.000000
207.382401, 59479.000000
207.482407, 58747.000000
207.582413, 58073.000000
207.682419, 57541.000000
207.782425, 57085.000000
207.882431, 56573.000000
207.982437, 56174.000000
208.082443, 55733.000000
208.182449, 55138.000000
208.282455, 54663.000000
208.382462, 53925.000000
208.482468, 53594.000000
208.582474, 53180.000000
208.682480, 52701.000000
208.782486, 52334.000000
208.882492, 51929.000000
208.982498, 51605.000000
209.082504, 51232.000000
209.182510, 51032.000000
209.282516, 50780.000000
209.382523, 50587.000000
209.482529, 50340.000000
209.582535, 50220.000000
209.682541, 50135.000000
209.782547, 49952.000000
209.882553, 49699.000000
209.982559, 49523.000000
210.082565, 49373.000000
210.182571, 49393.000000
210.282578, 49399.000000
210.382584, 49330.000000
210.482590, 49170.000000
210.582596, 48981.000000
210.682602, 48954.000000
210.782608, 48938.000000
210.882614, 48972.000000
210.982620, 48938.000000
211.082626, 49024.000000
211.182632, 49074.000000
211.282639, 49312.000000
211.382645, 49394.000000
211.482651, 49384.000000
211.582657, 49549.000000
211.682663, 49554.000000
211.782669, 49667.000000
211.882675, 49652.000000
211.982681, 49807.000000
212.082687, 49903.000000
212.182693, 50011.000000
212.282700, 50068.000000
212.382706, 50018.000000
212.482712, 49980.000000
212.582718, 50100.000000
212.682724, 50249.000000
212.782730, 50393.000000
212.882736, 50379.000000
212.982742, 50661.000000
213.082748, 50628.000000
213.182755, 50942.000000
213.282761, 50897.000000
213.382767, 51028.000000
213.482773, 51220.000000
213.582779, 51228.000000
213.682785, 51256.000000
213.782791, 51453.000000
213.882797, 51686.000000
213.982803, 51888.000000
214.082809, 52003.000000
214.182816, 51949.000000
214.282822, 51953.000000
214.382828, 52116.000000
214.482834, 52211.000000
214.582840, 52173.000000
214.682846, 52187.000000
214.782852, 52393.000000
214.882858, 52404.000000
214.982864, 52492.000000
215.082870, 52347.000000
215.182877, 52299.000000
215.282883, 52649.000000
215.382889, 52821.000000
215.482895, 52894.000000
215.582901, 53027.000000
215.682907, 53280.000000
215.782913, 53580.000000
215.882919, 53610.000000
215.982925, 53607.000000
216.082932, 53662.000000
216.182938, 53925.000000
216.282944, 53840.000000
216.382950, 54048.000000
216.482956, 53972.000000
216.582962, 54049.000000
216.682968, 54122.000000
216.782974, 54024.000000
216.882980, 54170.000000
216.982986, 54215.000000
217.082993, 54173.000000
217.182999, 54298.000000
217.283005, 54521.000000
217.383011, 54521.000000
217.483017, 54789.000000
217.583023, 54861.000000
217.683029, 55060.000000
217.783035, 55230.000000
217.883041, 55310.000000
217.983047, 55511.000000
218.083054, 55560.000000
218.183060, 55587.000000
218.283066, 55767.000000
218.383072, 55636.000000
218.483078, 55892.000000
218.583084, 55979.000000
218.683090, 56180.000000
218.783096, 56223.000000
218.883102, 56345.000000
218.983109, 56525.000000
219.083115, 56536.000000
219.183121, 56718.000000
219.283127, 56907.000000
219.383133, 56931.000000
219.483139, 57083.000000
219.583145, 57321.000000
219.683151, 57508.000000
219.783157, 57524.000000
219.883163, 57711.000000
219.983170, 57855.000000
220.083176, 57959.000000
220.183182, 58188.000000
220.283188, 58312.000000
220.383194, 58370.000000
220.483200, 58269.000000
220.583206, 58529.000000
220.683212, 58761.000000
220.783218, 58633.000000
220.883224, 58487.000000
220.983231, 58587.000000
221.083237, 58922.000000
221.183243, 58835.000000
221.283249, 58956.000000
221.383255, 58951.000000
221.483261, 59153.000000
221.583267, 59118.000000
221.683273, 59288.000000
221.783279, 59630.000000
221.883286, 59788.000000
221.983292, 59779.000000
222.083298, 59902.000000
222.183304, 59867.000000
222.283310, 59773.000000
222.383316, 59833.000000
222.483322, 59947.000000
222.583328, 59742.000000
222.683334, 59702.000000
222.783340, 59890.000000
222.883347, 59699.000000
222.983353, 59901.000000
223.083359, 60001.000000
223.183365, 59956.000000
223.283371, 59922.000000
223.383377, 59859.000000
223.483383, 59770.000000
223.583389, 59584.000000
223.683395, 59630.000000
223.783401, 59514.000000
223.883408, 59698.000000
223.983414, 59819.000000
224.083420, 59919.000000
224.183426, 60034.000000
224.283432, 59804.000000
224.383438, 59878.000000
224.483444, 59724.000000
224.583450, 59529.000000
224.683456, 59193.000000
224.783463, 59509.000000
224.883469, 59726.000000
224.983475, 59545.000000
225.083481, 59510.000000
225.183487, 59384.000000
225.283493, 59411.000000
225.383499, 59380.000000
225.483505, 59161.000000
225.583511, 59228.000000
225.683517, 59224.000000
225.783524, 59268.000000
225.883530, 59214.000000
225.983536, 59216.000000
226.083542, 59207.000000
226.183548, 59124.000000
226.283554, 59029.000000
226.383560, 59063.000000
226.483566, 58988.000000
226.583572, 58781.000000
226.683578, 58785.000000
226.783585, 58591.000000
226.883591, 58662.000000
226.983597, 58379.000000
227.083603, 58249.000000
227.183609, 58574.000000
227.283615, 58474.000000
227.383621, 58280.000000
227.483627, 58192.000000
227.583633, 58195.000000
227.683640, 58057.000000
227.783646, 58129.000000
227.883652, 58176.000000
227.983658, 58112.000000
228.083664, 57966.000000
228.183670, 57848.000000
228.283676, 57654.000000
228.383682, 57652.000000
228.483688, 57688.000000
228.583694, 57582.000000
228.683701, 57386.000000
228.783707, 57248.000000
228.883713, 57262.000000
228.983719, 57109.000000
229.083725, 56809.000000
229.183731, 56907.000000
229.283737, 56699.000000
229.383743, 56403.000000
229.483749, 56510.000000
229.583755, 56322.000000
229.683762, 56355.000000
229.783768, 56194.000000
229.883774, 55842.000000
229.983780, 55750.000000
230.083786, 55707.000000
230.183792, 55533.000000
230.283798, 55235.000000
230.383804, 54932.000000
230.483810, 55032.000000
230.583817, 54952.000000
230.683823, 54877.000000
230.783829, 54929.000000
230.883835, 54946.000000
230.983841, 54594.000000
231.083847, 54474.000000
231.183853, 54257.000000
231.283859, 54256.000000
231.383865, 53788.000000
231.483871, 53500.000000
231.583878, 53660.000000
231.683884, 53467.000000
231.783890, 53414.000000
231.883896, 53398.000000
231.983902, 53278.000000
232.083908, 53277.000000
232.183914, 53096.000000
232.283920, 52898.000000
232.383926, 52759.000000
232.483932, 52627.000000
232.583939, 52596.000000
232.683945, 52361.000000
232.783951, 52213.000000
232.883957, 52148.000000
232.983963, 51819.000000
233.083969, 51779.000000
233.183975, 51441.000000
233.283981, 51209.000000
233.383987, 50905.000000
233.483994, 50740.000000
233.584000, 50600.000000
233.684006, 50650.000000
233.784012, 50593.000000
233.884018, 50624.000000
233.984024, 50461.000000
234.084030, 50355.000000
234.184036, 50480.000000
234.284042, 50495.000000
234.384048, 50507.000000
234.484055, 50157.000000
234.584061, 50023.000000
234.684067, 49998.000000
234.784073, 50050.000000
234.884079, 50133.000000
234.984085, 50037.000000
235.084091, 49970.000000
235.184097, 49913.000000
235.284103, 49951.000000
235.384109, 49639.000000
235.484116, 49362.000000
235.584122, 49370.000000
235.684128, 49143.000000
235.784134, 49074.000000
235.884140, 49071.000000
235.984146, 49220.000000
236.084152, 49085.000000
236.184158, 49177.000000
236.284164, 49080.000000
236.384171, 49127.000000
236.484177, 49156.000000
236.584183, 49027.000000
236.684189, 49034.000000
236.784195, 48823.000000
236.884201, 48771.000000
236.984207, 48753.000000
237.084213, 48572.000000
237.184219, 48392.000000
237.284225, 48250.000000
237.384232, 48109.000000
237.484238, 47967.000000
237.584244, 47980.000000
237.684250, 47909.000000
237.784256, 47803.000000
237.884262, 47756.000000
237.984268, 47706.000000
238.084274, 47387.000000
238.184280, 47617.000000
238.284286, 47768.000000
238.384293, 47720.000000
238.484299, 47633.000000
238.584305, 47622.000000
238.684311, 47681.000000
238.784317, 47644.000000
238.884323, 47485.000000
238.984329, 47458.000000
239.084335, 47260.000000
239.184341, 47224.000000
239.284348, 47314.000000
239.384354, 47344.000000
239.484360, 47208.000000
239.584366, 47145.000000
239.684372, 47072.000000
239.784378, 47041.000000
239.884384, 46931.000000
239.984390, 47002.000000
240.084396, 46977.000000
240.184402, 47156.000000
240.284409, 47067.000000
240.384415, 47131.000000
240.484421, 47089.000000
240.584427, 46974.000000
240.684433, 46924.000000
240.784439, 46944.000000
240.884445, 46857.000000
240.984451, 46879.000000
241.084457, 46757.000000
241.184464, 46669.000000
241.284470, 46485.000000
241.384476, 46552.000000
241.484482, 46458.000000
241.584488, 46526.000000
241.684494, 46504.000000
241.784500, 46500.000000
241.884506, 46530.000000
241.984512, 46564.000000
242.084518, 46383.000000
242.184525, 46402.000000
242.284531, 46526.000000
242.384537, 46560.000000
242.484543, 46384.000000
242.584549, 46574.000000
242.684555, 46639.000000
242.784561, 46543.000000
242.884567, 46488.000000
242.984573, 46625.000000
243.084579, 46636.000000
243.184586, 46582.000000
243.284592, 46406.000000
243.384598, 46414.000000
243.484604, 46431.000000
243.584610, 46273.000000
243.684616, 46256.000000
243.784622, 46290.000000
243.884628, 46043.000000
243.984634, 45984.000000
244.084641, 45962.000000
244.184647, 45836.000000
244.284653, 45999.000000
244.384659, 45962.000000
244.484665, 45826.000000
244.584671, 45895.000000
244.684677, 45725.000000
244.784683, 45682.000000
244.884689, 45622.000000
244.984695, 45627.000000
245.084702, 45442.000000
245.184708, 45372.000000
245.284714, 45372.000000
245.384720, 45436.000000
245.484726, 45413.000000
245.584732, 45475.000000
245.684738, 45331.000000
245.784744, 45280.000000
245.884750, 45245.000000
245.984756, 45023.000000
246.084763, 45099.000000
246.184769, 44893.000000
246.284775, 44981.000000
246.384781, 45028.000000
246.484787, 45085.000000
246.584793, 45155.000000
246.684799, 45066.000000
246.784805, 45007.000000
246.884811, 44944.000000
246.984818, 44776.000000
247.084824, 44648.000000
247.184830, 44562.000000
247.284836, 44492.000000
247.384842, 44287.000000
247.484848, 44245.000000
247.584854, 44134.000000
247.684860, 44058.000000
247.784866, 43805.000000
247.884872, 43606.000000
247.984879, 43875.000000
248.084885, 44097.000000
248.184891, 44069.000000
248.284897, 44084.000000
248.384903, 44016.000000
248.484909, 44015.000000
248.584915, 43882.000000
248.684921, 43852.000000
248.784927, 43763.000000
248.884933, 43874.000000
248.984940, 43742.000000
249.084946, 43712.000000
249.184952, 43594.000000
249.284958, 43441.000000
249.384964, 43327.000000
249.484970, 43451.000000
249.584976, 43263.000000
249.684982, 43262.000000
249.784988, 43218.000000
249.884995, 43216.000000
249.985001, 43026.000000
250.085007, 43050.000000
250.185013, 43014.000000
250.285019, 43023.000000
250.385025, 43012.000000
250.485031, 42875.000000
250.585037, 42762.000000
250.685043, 42722.000000
250.785049, 42621.000000
250.885056, 42635.000000
250.985062, 42593.000000
251.085068, 42679.000000
251.185074, 42623.000000
251.285080, 42373.000000
251.385086, 42238.000000
251.485092, 42228.000000
251.585098, 41996.000000
251.685104, 41833.000000
251.785110, 41836.000000
251.885117, 41971.000000
251.985123, 41816.000000
252.085129, 41780.000000
252.185135, 41598.000000
252.285141, 41694.000000
252.385147, 41631.000000
252.485153, 41425.000000
252.585159, 41474.000000
252.685165, 41467.000000
252.785172, 41381.000000
252.885178, 41390.000000
252.985184, 41239.000000
253.085190, 41319.000000
253.185196, 41128.000000
253.285202, 41154.000000
253.385208, 41007.000000
253.485214, 40869.000000
253.585220, 40722.000000
253.685226, 40749.000000
253.785233, 40827.000000
253.885239, 40758.000000
253.985245, 40622.000000
254.085251, 40643.000000
254.185257, 40655.000000
254.285263, 40574.000000
254.385269, 40471.000000
254.485275, 40444.000000
254.585281, 40376.000000
254.685287, 40234.000000
254.785294, 40270.000000
254.885300, 40264.000000
254.985306, 40076.000000
255.085312, 39928.000000
255.185318, 39970.000000
255.285324, 39890.000000
255.385330, 39877.000000
255.485336, 39728.000000
255.585342, 39574.000000
255.685349, 39339.000000
255.785355, 39270.000000
255.885361, 39340.000000
255.985367, 39199.000000
256.085358, 38985.000000
256.185364, 39066.000000
256.285370, 39100.000000
256.385376, 39192.000000
256.485382, 39062.000000
256.585388, 39073.000000
256.685394, 39023.000000
256.785400, 38961.000000
256.885406, 39000.000000
256.985413, 39087.000000
257.085419, 39010.000000
257.185425, 38813.000000
257.285431, 38842.000000
257.385437, 38863.000000
257.485443, 38744.000000
257.585449, 38663.000000
257.685455, 38656.000000
257.785461, 38632.000000
257.885468, 38684.000000
257.985474, 38469.000000
258.085480, 38473.000000
258.185486, 38462.000000
258.285492, 38425.000000
258.385498, 38420.000000
258.485504, 38303.000000
258.585510, 38143.000000
258.685516, 38010.000000
258.785522, 38072.000000
258.885529, 38070.000000
258.985535, 37914.000000
259.085541, 37916.000000
259.185547, 37895.000000
259.285553, 37773.000000
259.385559, 37699.000000
259.485565, 37564.000000
259.585571, 37385.000000
259.685577, 37229.000000
259.785583, 37205.000000
259.885590, 37241.000000
259.985596, 37312.000000
260.085602, 37401.000000
260.185608, 37340.000000
260.285614, 37415.000000
260.385620, 37306.000000
260.485626, 37395.000000
260.585632, 37540.000000
260.685638, 37545.000000
260.785645, 37433.000000
260.885651, 37432.000000
260.985657, 37367.000000
261.085663, 37424.000000
261.185669, 37328.000000
261.285675, 37315.000000
261.385681, 37223.000000
261.485687, 37177.000000
261.585693, 37114.000000
261.685699, 37046.000000
261.785706, 36948.000000
261.885712, 36927.000000
261.985718, 36897.000000
262.085724, 36858.000000
262.185730, 36674.000000
262.285736, 36719.000000
262.385742, 36629.000000
262.485748, 36553.000000
262.585754, 36652.000000
262.685760, 36752.000000
262.785767, 36642.000000
262.885773, 36508.000000
262.985779, 36511.000000
263.085785, 36533.000000
263.185791, 36494.000000
263.285797, 36462.000000
263.385803, 36385.000000
263.485809, 36528.000000
263.585815, 36434.000000
263.685822, 36311.000000
263.785828, 36267.000000
263.885834, 36187.000000
263.985840, 36136.000000
264.085846, 36043.000000
264.185852, 36062.000000
264.285858, 35950.000000
264.385864, 35949.000000
264.485870, 35806.000000
264.585876, 35944.000000
264.685883, 36016.000000
264.785889, 36049.000000
264.885895, 36058.000000
264.985901, 36096.000000
265.085907, 36049.000000
265.185913, 36139.000000
265.285919, 35973.000000
265.385925, 35742.000000
265.485931, 35801.000000
265.585938, 35696.000000
265.685944, 35535.000000
265.785950, 35529.000000
265.885956, 35399.000000
265.985962, 35388.000000
266.085968, 35301.000000
266.185974, 35348.000000
266.285980, 35508.000000
266.385986, 35609.000000
266.485992, 35475.000000
266.585999, 35528.000000
266.686005, 35420.000000
266.786011, 35072.000000
266.886017, 35121.000000
266.986023, 35069.000000
267.086029, 35036.000000
267.186035, 34985.000000
267.286041, 34895.000000
267.386047, 34804.000000
267.486053, 34910.000000
267.586060, 34858.000000
267.686066, 34688.000000
267.786072, 34677.000000
267.886078, 34601.000000
267.986084, 34611.000000
268.086090, 34511.000000
268.186096, 34347.000000
268.286102, 34347.000000
268.386108, 34366.000000
268.486115, 34246.000000
268.586121, 34141.000000
268.686127, 34303.000000
268.786133, 34182.000000
268.886139, 34143.000000
268.986145, 34047.000000
269.086151, 34046.000000
269.186157, 34065.000000
269.286163, 34068.000000
269.386169, 33907.000000
269.486176, 33809.000000
269.586182, 33647.000000
269.686188, 33632.000000
269.786194, 33472.000000
269.886200, 33479.000000
#ENDOFDATA   : End Of Data and File
