#FORMAT	     : EMSA/MAS Spectral Data File
#VERSION     : 1.0
#TITLE       : Al_Al_L3_Daniele_Bouchet_188
#DATE        : 
#TIME        : 
#OWNER       : eelsdatabase.net
#NPOINTS     : 862
#NCOLUMNS    : 1
#XUNITS      : eV
#YUNITS      : 
#DATATYPE    : XY
#XPERCHAN    : 0.1
#OFFSET      : 6.000000e+001
#SIGNALTYPE  : ELS
#SPECTRUM    : Spectral Data Starts Here
6.000000e+001, 0.000000e+000
6.010000e+001, 0.000000e+000
6.020000e+001, 0.000000e+000
6.030000e+001, 0.000000e+000
6.040000e+001, 0.000000e+000
6.050000e+001, 0.000000e+000
6.060000e+001, 0.000000e+000
6.070000e+001, 0.000000e+000
6.080000e+001, 0.000000e+000
6.090000e+001, 0.000000e+000
6.100000e+001, 0.000000e+000
6.110000e+001, 0.000000e+000
6.120000e+001, 0.000000e+000
6.130000e+001, 0.000000e+000
6.140000e+001, 0.000000e+000
6.150000e+001, 0.000000e+000
6.160000e+001, 0.000000e+000
6.170000e+001, 0.000000e+000
6.180000e+001, 0.000000e+000
6.190000e+001, 0.000000e+000
6.200000e+001, 0.000000e+000
6.210000e+001, 0.000000e+000
6.220000e+001, 0.000000e+000
6.230000e+001, 0.000000e+000
6.240000e+001, 0.000000e+000
6.250000e+001, 0.000000e+000
6.260000e+001, 0.000000e+000
6.270000e+001, 0.000000e+000
6.280000e+001, 0.000000e+000
6.290000e+001, 0.000000e+000
6.300000e+001, 0.000000e+000
6.310000e+001, 0.000000e+000
6.320000e+001, 0.000000e+000
6.330000e+001, 0.000000e+000
6.340000e+001, 0.000000e+000
6.350000e+001, 0.000000e+000
6.360000e+001, 0.000000e+000
6.370000e+001, 0.000000e+000
6.380000e+001, 0.000000e+000
6.390000e+001, 0.000000e+000
6.400000e+001, 0.000000e+000
6.410000e+001, 0.000000e+000
6.420000e+001, 0.000000e+000
6.430000e+001, 0.000000e+000
6.440000e+001, 0.000000e+000
6.450000e+001, 0.000000e+000
6.460000e+001, 0.000000e+000
6.470000e+001, 0.000000e+000
6.480000e+001, 0.000000e+000
6.490000e+001, 0.000000e+000
6.500000e+001, 0.000000e+000
6.510000e+001, 0.000000e+000
6.520000e+001, 0.000000e+000
6.530000e+001, 0.000000e+000
6.540000e+001, 0.000000e+000
6.550000e+001, 0.000000e+000
6.560000e+001, 0.000000e+000
6.570000e+001, 0.000000e+000
6.580000e+001, 0.000000e+000
6.590000e+001, 0.000000e+000
6.600000e+001, 0.000000e+000
6.610000e+001, 0.000000e+000
6.620000e+001, 0.000000e+000
6.630000e+001, 0.000000e+000
6.640000e+001, 7.726424e+001
6.650000e+001, -1.038778e+002
6.660000e+001, -2.493730e+001
6.670000e+001, 9.244527e+001
6.680000e+001, 1.728123e+002
6.690000e+001, 8.666401e+001
6.700000e+001, -1.351004e+002
6.710000e+001, -4.582264e+002
6.720000e+001, -3.000725e+002
6.730000e+001, 1.329598e+002
6.740000e+001, -1.206052e+001
6.750000e+001, -2.060533e+002
6.760000e+001, -2.040229e+002
6.770000e+001, -1.024870e+002
6.780000e+001, 3.824894e+001
6.790000e+001, 7.011073e+000
6.800000e+001, -7.305898e+001
6.810000e+001, -1.134048e+002
6.820000e+001, 4.603946e+001
6.830000e+001, 8.380079e+001
6.840000e+001, 1.362696e+002
6.850000e+001, 8.719946e+001
6.860000e+001, -1.023457e+002
6.870000e+001, -3.701099e+001
6.880000e+001, -1.714893e+002
6.890000e+001, -1.873836e+002
6.900000e+001, 1.588342e+002
6.910000e+001, 2.136605e+002
6.920000e+001, -4.594844e+001
6.930000e+001, 1.622196e+001
6.940000e+001, -4.010962e+001
6.950000e+001, -8.936613e+001
6.960000e+001, -1.654630e+001
6.970000e+001, 1.929972e+001
6.980000e+001, 1.073930e+001
6.990000e+001, 7.137024e+001
7.000000e+001, 1.808813e+002
7.010000e+001, -3.456203e+001
7.020000e+001, -4.912944e+001
7.030000e+001, -1.420460e+001
7.040000e+001, -5.624759e+001
7.050000e+001, -8.124207e+001
7.060000e+001, 8.553294e+001
7.070000e+001, 1.549474e+002
7.080000e+001, 1.172923e+002
7.090000e+001, 1.433298e+002
7.100000e+001, 2.544032e+002
7.110000e+001, 2.727882e+002
7.120000e+001, 3.563250e+002
7.130000e+001, 4.799446e+002
7.140000e+001, 5.880482e+002
7.150000e+001, 6.361064e+002
7.160000e+001, 8.913858e+002
7.170000e+001, 1.015559e+003
7.180000e+001, 1.259929e+003
7.190000e+001, 1.449060e+003
7.200000e+001, 1.912906e+003
7.210000e+001, 2.217517e+003
7.220000e+001, 2.921853e+003
7.230000e+001, 4.159417e+003
7.240000e+001, 5.351186e+003
7.250000e+001, 6.439247e+003
7.260000e+001, 7.688147e+003
7.270000e+001, 9.181416e+003
7.280000e+001, 1.031930e+004
7.290000e+001, 1.087718e+004
7.300000e+001, 1.133156e+004
7.310000e+001, 1.205782e+004
7.320000e+001, 1.239906e+004
7.330000e+001, 1.260213e+004
7.340000e+001, 1.288875e+004
7.350000e+001, 1.346175e+004
7.360000e+001, 1.368030e+004
7.370000e+001, 1.379952e+004
7.380000e+001, 1.430509e+004
7.390000e+001, 1.443902e+004
7.400000e+001, 1.446269e+004
7.410000e+001, 1.480740e+004
7.420000e+001, 1.499252e+004
7.430000e+001, 1.517099e+004
7.440000e+001, 1.532073e+004
7.450000e+001, 1.534511e+004
7.460000e+001, 1.548725e+004
7.470000e+001, 1.576087e+004
7.480000e+001, 1.581182e+004
7.490000e+001, 1.574540e+004
7.500000e+001, 1.587698e+004
7.510000e+001, 1.618203e+004
7.520000e+001, 1.640282e+004
7.530000e+001, 1.645013e+004
7.540000e+001, 1.646670e+004
7.550000e+001, 1.665327e+004
7.560000e+001, 1.681058e+004
7.570000e+001, 1.733035e+004
7.580000e+001, 1.736198e+004
7.590000e+001, 1.747343e+004
7.600000e+001, 1.782317e+004
7.610000e+001, 1.819738e+004
7.620000e+001, 1.848821e+004
7.630000e+001, 1.843384e+004
7.640000e+001, 1.870300e+004
7.650000e+001, 1.892304e+004
7.660000e+001, 1.940881e+004
7.670000e+001, 1.933630e+004
7.680000e+001, 1.951102e+004
7.690000e+001, 1.943012e+004
7.700000e+001, 1.934592e+004
7.710000e+001, 1.949826e+004
7.720000e+001, 1.946936e+004
7.730000e+001, 1.955704e+004
7.740000e+001, 1.968561e+004
7.750000e+001, 1.956740e+004
7.760000e+001, 1.979058e+004
7.770000e+001, 2.004871e+004
7.780000e+001, 2.028422e+004
7.790000e+001, 2.061867e+004
7.800000e+001, 2.093037e+004
7.810000e+001, 2.105172e+004
7.820000e+001, 2.138486e+004
7.830000e+001, 2.140173e+004
7.840000e+001, 2.181295e+004
7.850000e+001, 2.220195e+004
7.860000e+001, 2.222527e+004
7.870000e+001, 2.255229e+004
7.880000e+001, 2.271259e+004
7.890000e+001, 2.300817e+004
7.900000e+001, 2.327454e+004
7.910000e+001, 2.336807e+004
7.920000e+001, 2.321487e+004
7.930000e+001, 2.321509e+004
7.940000e+001, 2.317173e+004
7.950000e+001, 2.329685e+004
7.960000e+001, 2.324878e+004
7.970000e+001, 2.356241e+004
7.980000e+001, 2.378317e+004
7.990000e+001, 2.373138e+004
8.000000e+001, 2.380846e+004
8.010000e+001, 2.414940e+004
8.020000e+001, 2.434078e+004
8.030000e+001, 2.413782e+004
8.040000e+001, 2.420310e+004
8.050000e+001, 2.449434e+004
8.060000e+001, 2.449066e+004
8.070000e+001, 2.451198e+004
8.080000e+001, 2.479807e+004
8.090000e+001, 2.512325e+004
8.100000e+001, 2.512444e+004
8.110000e+001, 2.502214e+004
8.120000e+001, 2.516500e+004
8.130000e+001, 2.544839e+004
8.140000e+001, 2.577239e+004
8.150000e+001, 2.568293e+004
8.160000e+001, 2.576766e+004
8.170000e+001, 2.593657e+004
8.180000e+001, 2.619644e+004
8.190000e+001, 2.649541e+004
8.200000e+001, 2.683000e+004
8.210000e+001, 2.679820e+004
8.220000e+001, 2.697194e+004
8.230000e+001, 2.703352e+004
8.240000e+001, 2.702317e+004
8.250000e+001, 2.713579e+004
8.260000e+001, 2.755721e+004
8.270000e+001, 2.753214e+004
8.280000e+001, 2.785704e+004
8.290000e+001, 2.778873e+004
8.300000e+001, 2.777527e+004
8.310000e+001, 2.791286e+004
8.320000e+001, 2.821688e+004
8.330000e+001, 2.855747e+004
8.340000e+001, 2.898519e+004
8.350000e+001, 2.908003e+004
8.360000e+001, 2.923555e+004
8.370000e+001, 2.946672e+004
8.380000e+001, 2.938285e+004
8.390000e+001, 2.940993e+004
8.400000e+001, 2.947140e+004
8.410000e+001, 2.969899e+004
8.420000e+001, 2.974488e+004
8.430000e+001, 2.995390e+004
8.440000e+001, 2.991053e+004
8.450000e+001, 2.944854e+004
8.460000e+001, 2.991011e+004
8.470000e+001, 2.988068e+004
8.480000e+001, 3.019103e+004
8.490000e+001, 3.043412e+004
8.500000e+001, 3.032366e+004
8.510000e+001, 3.038037e+004
8.520000e+001, 3.044612e+004
8.530000e+001, 3.049108e+004
8.540000e+001, 3.042134e+004
8.550000e+001, 3.057522e+004
8.560000e+001, 3.066436e+004
8.570000e+001, 3.068313e+004
8.580000e+001, 3.089275e+004
8.590000e+001, 3.144394e+004
8.600000e+001, 3.169626e+004
8.610000e+001, 3.173458e+004
8.620000e+001, 3.165548e+004
8.630000e+001, 3.156972e+004
8.640000e+001, 3.164464e+004
8.650000e+001, 3.168111e+004
8.660000e+001, 3.161670e+004
8.670000e+001, 3.170925e+004
8.680000e+001, 3.182943e+004
8.690000e+001, 3.204101e+004
8.700000e+001, 3.227789e+004
8.710000e+001, 3.240564e+004
8.720000e+001, 3.251839e+004
8.730000e+001, 3.263757e+004
8.740000e+001, 3.291722e+004
8.750000e+001, 3.311210e+004
8.760000e+001, 3.314947e+004
8.770000e+001, 3.347052e+004
8.780000e+001, 3.366060e+004
8.790000e+001, 3.343617e+004
8.800000e+001, 3.348405e+004
8.810000e+001, 3.361034e+004
8.820000e+001, 3.346330e+004
8.830000e+001, 3.378433e+004
8.840000e+001, 3.403845e+004
8.850000e+001, 3.437788e+004
8.860000e+001, 3.439706e+004
8.870000e+001, 3.454459e+004
8.880000e+001, 3.514598e+004
8.890000e+001, 3.522401e+004
8.900000e+001, 3.511831e+004
8.910000e+001, 3.522180e+004
8.920000e+001, 3.538957e+004
8.930000e+001, 3.541546e+004
8.940000e+001, 3.580114e+004
8.950000e+001, 3.605986e+004
8.960000e+001, 3.629095e+004
8.970000e+001, 3.662534e+004
8.980000e+001, 3.680117e+004
8.990000e+001, 3.720806e+004
9.000000e+001, 3.737841e+004
9.010000e+001, 3.764455e+004
9.020000e+001, 3.740390e+004
9.030000e+001, 3.798589e+004
9.040000e+001, 3.782456e+004
9.050000e+001, 3.804038e+004
9.060000e+001, 3.805000e+004
9.070000e+001, 3.811579e+004
9.080000e+001, 3.829706e+004
9.090000e+001, 3.857869e+004
9.100000e+001, 3.883774e+004
9.110000e+001, 3.891039e+004
9.120000e+001, 3.923145e+004
9.130000e+001, 3.944735e+004
9.140000e+001, 3.956214e+004
9.150000e+001, 3.991459e+004
9.160000e+001, 4.037418e+004
9.170000e+001, 4.072741e+004
9.180000e+001, 4.100170e+004
9.190000e+001, 4.130828e+004
9.200000e+001, 4.131988e+004
9.210000e+001, 4.146876e+004
9.220000e+001, 4.196400e+004
9.230000e+001, 4.203433e+004
9.240000e+001, 4.193639e+004
9.250000e+001, 4.203945e+004
9.260000e+001, 4.242506e+004
9.270000e+001, 4.268857e+004
9.280000e+001, 4.284717e+004
9.290000e+001, 4.302368e+004
9.300000e+001, 4.320760e+004
9.310000e+001, 4.344792e+004
9.320000e+001, 4.390977e+004
9.330000e+001, 4.421793e+004
9.340000e+001, 4.445166e+004
9.350000e+001, 4.459543e+004
9.360000e+001, 4.474929e+004
9.370000e+001, 4.494836e+004
9.380000e+001, 4.543170e+004
9.390000e+001, 4.563826e+004
9.400000e+001, 4.556803e+004
9.410000e+001, 4.568305e+004
9.420000e+001, 4.590715e+004
9.430000e+001, 4.591011e+004
9.440000e+001, 4.620780e+004
9.450000e+001, 4.652175e+004
9.460000e+001, 4.678548e+004
9.470000e+001, 4.690710e+004
9.480000e+001, 4.691663e+004
9.490000e+001, 4.719719e+004
9.500000e+001, 4.729391e+004
9.510000e+001, 4.744062e+004
9.520000e+001, 4.767073e+004
9.530000e+001, 4.777334e+004
9.540000e+001, 4.753240e+004
9.550000e+001, 4.802157e+004
9.560000e+001, 4.785463e+004
9.570000e+001, 4.756306e+004
9.580000e+001, 4.802440e+004
9.590000e+001, 4.798363e+004
9.600000e+001, 4.771163e+004
9.610000e+001, 4.791851e+004
9.620000e+001, 4.807558e+004
9.630000e+001, 4.831690e+004
9.640000e+001, 4.853411e+004
9.650000e+001, 4.857840e+004
9.660000e+001, 4.879936e+004
9.670000e+001, 4.885727e+004
9.680000e+001, 4.882314e+004
9.690000e+001, 4.840585e+004
9.700000e+001, 4.861368e+004
9.710000e+001, 4.862678e+004
9.720000e+001, 4.866079e+004
9.730000e+001, 4.873439e+004
9.740000e+001, 4.846682e+004
9.750000e+001, 4.848698e+004
9.760000e+001, 4.813237e+004
9.770000e+001, 4.820862e+004
9.780000e+001, 4.823438e+004
9.790000e+001, 4.837774e+004
9.800000e+001, 4.826214e+004
9.810000e+001, 4.783184e+004
9.820000e+001, 4.716155e+004
9.830000e+001, 4.691530e+004
9.840000e+001, 4.707435e+004
9.850000e+001, 4.684993e+004
9.860000e+001, 4.641077e+004
9.870000e+001, 4.623664e+004
9.880000e+001, 4.600075e+004
9.890000e+001, 4.561213e+004
9.900000e+001, 4.535617e+004
9.910000e+001, 4.474777e+004
9.920000e+001, 4.437370e+004
9.930000e+001, 4.452186e+004
9.940000e+001, 4.446305e+004
9.950000e+001, 4.402907e+004
9.960000e+001, 4.369558e+004
9.970000e+001, 4.316468e+004
9.980000e+001, 4.275312e+004
9.990000e+001, 4.235570e+004
1.000000e+002, 4.190225e+004
1.001000e+002, 4.149056e+004
1.002000e+002, 4.154025e+004
1.003000e+002, 4.153131e+004
1.004000e+002, 4.130254e+004
1.005000e+002, 4.091107e+004
1.006000e+002, 4.054885e+004
1.007000e+002, 4.027644e+004
1.008000e+002, 4.004576e+004
1.009000e+002, 3.957454e+004
1.010000e+002, 3.905558e+004
1.011000e+002, 3.893909e+004
1.012000e+002, 3.894495e+004
1.013000e+002, 3.844432e+004
1.014000e+002, 3.842619e+004
1.015000e+002, 3.857908e+004
1.016000e+002, 3.820832e+004
1.017000e+002, 3.788382e+004
1.018000e+002, 3.743113e+004
1.019000e+002, 3.732748e+004
1.020000e+002, 3.764679e+004
1.021000e+002, 3.699975e+004
1.022000e+002, 3.692977e+004
1.023000e+002, 3.685291e+004
1.024000e+002, 3.675187e+004
1.025000e+002, 3.643097e+004
1.026000e+002, 3.610371e+004
1.027000e+002, 3.618031e+004
1.028000e+002, 3.637578e+004
1.029000e+002, 3.644711e+004
1.030000e+002, 3.630225e+004
1.031000e+002, 3.612950e+004
1.032000e+002, 3.585113e+004
1.033000e+002, 3.581546e+004
1.034000e+002, 3.592254e+004
1.035000e+002, 3.580577e+004
1.036000e+002, 3.575335e+004
1.037000e+002, 3.532940e+004
1.038000e+002, 3.545373e+004
1.039000e+002, 3.570597e+004
1.040000e+002, 3.560948e+004
1.041000e+002, 3.554855e+004
1.042000e+002, 3.521543e+004
1.043000e+002, 3.510441e+004
1.044000e+002, 3.551268e+004
1.045000e+002, 3.580552e+004
1.046000e+002, 3.590461e+004
1.047000e+002, 3.577490e+004
1.048000e+002, 3.568392e+004
1.049000e+002, 3.559876e+004
1.050000e+002, 3.532421e+004
1.051000e+002, 3.534775e+004
1.052000e+002, 3.549430e+004
1.053000e+002, 3.551760e+004
1.054000e+002, 3.545308e+004
1.055000e+002, 3.568618e+004
1.056000e+002, 3.576327e+004
1.057000e+002, 3.577525e+004
1.058000e+002, 3.583864e+004
1.059000e+002, 3.587007e+004
1.060000e+002, 3.595977e+004
1.061000e+002, 3.571627e+004
1.062000e+002, 3.545913e+004
1.063000e+002, 3.562393e+004
1.064000e+002, 3.608027e+004
1.065000e+002, 3.601863e+004
1.066000e+002, 3.579588e+004
1.067000e+002, 3.596024e+004
1.068000e+002, 3.643759e+004
1.069000e+002, 3.651536e+004
1.070000e+002, 3.658539e+004
1.071000e+002, 3.642996e+004
1.072000e+002, 3.620640e+004
1.073000e+002, 3.636340e+004
1.074000e+002, 3.666540e+004
1.075000e+002, 3.666568e+004
1.076000e+002, 3.676320e+004
1.077000e+002, 3.678710e+004
1.078000e+002, 3.674709e+004
1.079000e+002, 3.660784e+004
1.080000e+002, 3.628922e+004
1.081000e+002, 3.601870e+004
1.082000e+002, 3.633067e+004
1.083000e+002, 3.650021e+004
1.084000e+002, 3.653582e+004
1.085000e+002, 3.657411e+004
1.086000e+002, 3.642631e+004
1.087000e+002, 3.662102e+004
1.088000e+002, 3.655567e+004
1.089000e+002, 3.657405e+004
1.090000e+002, 3.663600e+004
1.091000e+002, 3.702666e+004
1.092000e+002, 3.672444e+004
1.093000e+002, 3.675516e+004
1.094000e+002, 3.678933e+004
1.095000e+002, 3.671652e+004
1.096000e+002, 3.666543e+004
1.097000e+002, 3.660546e+004
1.098000e+002, 3.656897e+004
1.099000e+002, 3.664757e+004
1.100000e+002, 3.679379e+004
1.101000e+002, 3.681180e+004
1.102000e+002, 3.686085e+004
1.103000e+002, 3.687730e+004
1.104000e+002, 3.703870e+004
1.105000e+002, 3.691176e+004
1.106000e+002, 3.677837e+004
1.107000e+002, 3.684151e+004
1.108000e+002, 3.678742e+004
1.109000e+002, 3.671409e+004
1.110000e+002, 3.672794e+004
1.111000e+002, 3.688088e+004
1.112000e+002, 3.707545e+004
1.113000e+002, 3.718204e+004
1.114000e+002, 3.706372e+004
1.115000e+002, 3.687224e+004
1.116000e+002, 3.693308e+004
1.117000e+002, 3.697230e+004
1.118000e+002, 3.680118e+004
1.119000e+002, 3.669077e+004
1.120000e+002, 3.672512e+004
1.121000e+002, 3.660566e+004
1.122000e+002, 3.662511e+004
1.123000e+002, 3.673477e+004
1.124000e+002, 3.652336e+004
1.125000e+002, 3.661535e+004
1.126000e+002, 3.665159e+004
1.127000e+002, 3.659197e+004
1.128000e+002, 3.638338e+004
1.129000e+002, 3.623735e+004
1.130000e+002, 3.652865e+004
1.131000e+002, 3.629126e+004
1.132000e+002, 3.649159e+004
1.133000e+002, 3.666049e+004
1.134000e+002, 3.651155e+004
1.135000e+002, 3.610115e+004
1.136000e+002, 3.651805e+004
1.137000e+002, 3.632377e+004
1.138000e+002, 3.633179e+004
1.139000e+002, 3.648310e+004
1.140000e+002, 3.644423e+004
1.141000e+002, 3.640330e+004
1.142000e+002, 3.633946e+004
1.143000e+002, 3.627396e+004
1.144000e+002, 3.624229e+004
1.145000e+002, 3.626979e+004
1.146000e+002, 3.607741e+004
1.147000e+002, 3.601587e+004
1.148000e+002, 3.625992e+004
1.149000e+002, 3.584328e+004
1.150000e+002, 3.567383e+004
1.151000e+002, 3.572432e+004
1.152000e+002, 3.577832e+004
1.153000e+002, 3.584866e+004
1.154000e+002, 3.580620e+004
1.155000e+002, 3.598709e+004
1.156000e+002, 3.606655e+004
1.157000e+002, 3.580488e+004
1.158000e+002, 3.561255e+004
1.159000e+002, 3.600668e+004
1.160000e+002, 3.558881e+004
1.161000e+002, 3.551096e+004
1.162000e+002, 3.560769e+004
1.163000e+002, 3.590317e+004
1.164000e+002, 3.599982e+004
1.165000e+002, 3.571995e+004
1.166000e+002, 3.551014e+004
1.167000e+002, 3.569311e+004
1.168000e+002, 3.593743e+004
1.169000e+002, 3.583923e+004
1.170000e+002, 3.592025e+004
1.171000e+002, 3.590664e+004
1.172000e+002, 3.574640e+004
1.173000e+002, 3.551118e+004
1.174000e+002, 3.569305e+004
1.175000e+002, 3.589795e+004
1.176000e+002, 3.577826e+004
1.177000e+002, 3.576452e+004
1.178000e+002, 3.603841e+004
1.179000e+002, 3.603050e+004
1.180000e+002, 3.600466e+004
1.181000e+002, 3.587454e+004
1.182000e+002, 3.577054e+004
1.183000e+002, 3.574933e+004
1.184000e+002, 3.566877e+004
1.185000e+002, 3.564286e+004
1.186000e+002, 3.568655e+004
1.187000e+002, 3.557663e+004
1.188000e+002, 3.535136e+004
1.189000e+002, 3.531320e+004
1.190000e+002, 3.541098e+004
1.191000e+002, 3.564369e+004
1.192000e+002, 3.576105e+004
1.193000e+002, 3.580655e+004
1.194000e+002, 3.579025e+004
1.195000e+002, 3.548910e+004
1.196000e+002, 3.537953e+004
1.197000e+002, 3.514352e+004
1.198000e+002, 3.526245e+004
1.199000e+002, 3.530800e+004
1.200000e+002, 3.542797e+004
1.201000e+002, 3.551909e+004
1.202000e+002, 3.540230e+004
1.203000e+002, 3.520153e+004
1.204000e+002, 3.518589e+004
1.205000e+002, 3.530504e+004
1.206000e+002, 3.522462e+004
1.207000e+002, 3.526392e+004
1.208000e+002, 3.570146e+004
1.209000e+002, 3.562521e+004
1.210000e+002, 3.562255e+004
1.211000e+002, 3.575683e+004
1.212000e+002, 3.570404e+004
1.213000e+002, 3.562429e+004
1.214000e+002, 3.530884e+004
1.215000e+002, 3.505410e+004
1.216000e+002, 3.512438e+004
1.217000e+002, 3.518938e+004
1.218000e+002, 3.531419e+004
1.219000e+002, 3.558625e+004
1.220000e+002, 3.535627e+004
1.221000e+002, 3.527034e+004
1.222000e+002, 3.499982e+004
1.223000e+002, 3.512297e+004
1.224000e+002, 3.518217e+004
1.225000e+002, 3.544266e+004
1.226000e+002, 3.537830e+004
1.227000e+002, 3.529368e+004
1.228000e+002, 3.537267e+004
1.229000e+002, 3.526818e+004
1.230000e+002, 3.537055e+004
1.231000e+002, 3.535661e+004
1.232000e+002, 3.523897e+004
1.233000e+002, 3.511957e+004
1.234000e+002, 3.485738e+004
1.235000e+002, 3.474898e+004
1.236000e+002, 3.477813e+004
1.237000e+002, 3.475549e+004
1.238000e+002, 3.478685e+004
1.239000e+002, 3.487691e+004
1.240000e+002, 3.497737e+004
1.241000e+002, 3.490746e+004
1.242000e+002, 3.490802e+004
1.243000e+002, 3.489239e+004
1.244000e+002, 3.467368e+004
1.245000e+002, 3.457453e+004
1.246000e+002, 3.459853e+004
1.247000e+002, 3.424749e+004
1.248000e+002, 3.443288e+004
1.249000e+002, 3.424425e+004
1.250000e+002, 3.442597e+004
1.251000e+002, 3.429658e+004
1.252000e+002, 3.417675e+004
1.253000e+002, 3.419460e+004
1.254000e+002, 3.424748e+004
1.255000e+002, 3.405232e+004
1.256000e+002, 3.387620e+004
1.257000e+002, 3.383241e+004
1.258000e+002, 3.393422e+004
1.259000e+002, 3.396630e+004
1.260000e+002, 3.364855e+004
1.261000e+002, 3.362269e+004
1.262000e+002, 3.353659e+004
1.263000e+002, 3.344804e+004
1.264000e+002, 3.332180e+004
1.265000e+002, 3.316350e+004
1.266000e+002, 3.331020e+004
1.267000e+002, 3.348118e+004
1.268000e+002, 3.314265e+004
1.269000e+002, 3.307187e+004
1.270000e+002, 3.299425e+004
1.271000e+002, 3.274329e+004
1.272000e+002, 3.263428e+004
1.273000e+002, 3.231906e+004
1.274000e+002, 3.269975e+004
1.275000e+002, 3.255408e+004
1.276000e+002, 3.236094e+004
1.277000e+002, 3.208195e+004
1.278000e+002, 3.204279e+004
1.279000e+002, 3.210233e+004
1.280000e+002, 3.190391e+004
1.281000e+002, 3.180262e+004
1.282000e+002, 3.180211e+004
1.283000e+002, 3.159012e+004
1.284000e+002, 3.167496e+004
1.285000e+002, 3.181866e+004
1.286000e+002, 3.166801e+004
1.287000e+002, 3.151890e+004
1.288000e+002, 3.136536e+004
1.289000e+002, 3.127267e+004
1.290000e+002, 3.103995e+004
1.291000e+002, 3.095010e+004
1.292000e+002, 3.097494e+004
1.293000e+002, 3.097566e+004
1.294000e+002, 3.086720e+004
1.295000e+002, 3.066795e+004
1.296000e+002, 3.046551e+004
1.297000e+002, 3.035163e+004
1.298000e+002, 3.044340e+004
1.299000e+002, 3.037005e+004
1.300000e+002, 3.030047e+004
1.301000e+002, 3.028115e+004
1.302000e+002, 3.019754e+004
1.303000e+002, 2.984836e+004
1.304000e+002, 2.982479e+004
1.305000e+002, 2.963136e+004
1.306000e+002, 2.959772e+004
1.307000e+002, 2.947351e+004
1.308000e+002, 2.921760e+004
1.309000e+002, 2.924125e+004
1.310000e+002, 2.910686e+004
1.311000e+002, 2.900494e+004
1.312000e+002, 2.903131e+004
1.313000e+002, 2.889291e+004
1.314000e+002, 2.880495e+004
1.315000e+002, 2.881332e+004
1.316000e+002, 2.878737e+004
1.317000e+002, 2.857175e+004
1.318000e+002, 2.845048e+004
1.319000e+002, 2.824246e+004
1.320000e+002, 2.804448e+004
1.321000e+002, 2.818793e+004
1.322000e+002, 2.827828e+004
1.323000e+002, 2.788921e+004
1.324000e+002, 2.797086e+004
1.325000e+002, 2.792792e+004
1.326000e+002, 2.778810e+004
1.327000e+002, 2.762337e+004
1.328000e+002, 2.764941e+004
1.329000e+002, 2.783909e+004
1.330000e+002, 2.742770e+004
1.331000e+002, 2.737723e+004
1.332000e+002, 2.738752e+004
1.333000e+002, 2.714082e+004
1.334000e+002, 2.708176e+004
1.335000e+002, 2.722228e+004
1.336000e+002, 2.707106e+004
1.337000e+002, 2.691671e+004
1.338000e+002, 2.709327e+004
1.339000e+002, 2.696643e+004
1.340000e+002, 2.668060e+004
1.341000e+002, 2.656236e+004
1.342000e+002, 2.681780e+004
1.343000e+002, 2.674685e+004
1.344000e+002, 2.642170e+004
1.345000e+002, 2.632090e+004
1.346000e+002, 2.649904e+004
1.347000e+002, 2.635898e+004
1.348000e+002, 2.644946e+004
1.349000e+002, 2.662550e+004
1.350000e+002, 2.660641e+004
1.351000e+002, 2.638190e+004
1.352000e+002, 2.626349e+004
1.353000e+002, 2.643595e+004
1.354000e+002, 2.649712e+004
1.355000e+002, 2.646022e+004
1.356000e+002, 2.628309e+004
1.357000e+002, 2.612176e+004
1.358000e+002, 2.606206e+004
1.359000e+002, 2.605926e+004
1.360000e+002, 2.591616e+004
1.361000e+002, 2.597209e+004
1.362000e+002, 2.621712e+004
1.363000e+002, 2.623551e+004
1.364000e+002, 2.606597e+004
1.365000e+002, 2.591417e+004
1.366000e+002, 2.580104e+004
1.367000e+002, 2.575424e+004
1.368000e+002, 2.583026e+004
1.369000e+002, 2.584507e+004
1.370000e+002, 2.574105e+004
1.371000e+002, 2.561430e+004
1.372000e+002, 2.566473e+004
1.373000e+002, 2.555579e+004
1.374000e+002, 2.554893e+004
1.375000e+002, 2.556805e+004
1.376000e+002, 2.567739e+004
1.377000e+002, 2.562936e+004
1.378000e+002, 2.553389e+004
1.379000e+002, 2.551708e+004
1.380000e+002, 2.537725e+004
1.381000e+002, 2.534138e+004
1.382000e+002, 2.531586e+004
1.383000e+002, 2.533792e+004
1.384000e+002, 2.528239e+004
1.385000e+002, 2.519494e+004
1.386000e+002, 2.509501e+004
1.387000e+002, 2.519296e+004
1.388000e+002, 2.516694e+004
1.389000e+002, 2.500928e+004
1.390000e+002, 2.495570e+004
1.391000e+002, 2.501033e+004
1.392000e+002, 2.475412e+004
1.393000e+002, 2.492309e+004
1.394000e+002, 2.449956e+004
1.395000e+002, 2.455737e+004
1.396000e+002, 2.464864e+004
1.397000e+002, 2.457678e+004
1.398000e+002, 2.465369e+004
1.399000e+002, 2.458585e+004
1.400000e+002, 2.460489e+004
1.401000e+002, 2.448166e+004
1.402000e+002, 2.453297e+004
1.403000e+002, 2.465670e+004
1.404000e+002, 2.471706e+004
1.405000e+002, 2.454263e+004
1.406000e+002, 2.465162e+004
1.407000e+002, 2.454467e+004
1.408000e+002, 2.454376e+004
1.409000e+002, 2.465443e+004
1.410000e+002, 2.459006e+004
1.411000e+002, 2.455986e+004
1.412000e+002, 2.447381e+004
1.413000e+002, 2.418951e+004
1.414000e+002, 2.406924e+004
1.415000e+002, 2.423484e+004
1.416000e+002, 2.424463e+004
1.417000e+002, 2.438759e+004
1.418000e+002, 2.435900e+004
1.419000e+002, 2.420536e+004
1.420000e+002, 2.401154e+004
1.421000e+002, 2.389704e+004
1.422000e+002, 2.400267e+004
1.423000e+002, 2.408446e+004
1.424000e+002, 2.397423e+004
1.425000e+002, 2.396470e+004
1.426000e+002, 2.402788e+004
1.427000e+002, 2.378103e+004
1.428000e+002, 2.352373e+004
1.429000e+002, 2.348519e+004
1.430000e+002, 2.378176e+004
1.431000e+002, 2.369568e+004
1.432000e+002, 2.361316e+004
1.433000e+002, 2.362211e+004
1.434000e+002, 2.364494e+004
1.435000e+002, 2.365142e+004
1.436000e+002, 2.346070e+004
1.437000e+002, 2.358963e+004
1.438000e+002, 2.330674e+004
1.439000e+002, 2.317704e+004
1.440000e+002, 2.306957e+004
1.441000e+002, 2.320975e+004
1.442000e+002, 2.312839e+004
1.443000e+002, 2.330004e+004
1.444000e+002, 2.333312e+004
1.445000e+002, 2.309789e+004
1.446000e+002, 2.316994e+004
1.447000e+002, 2.314311e+004
1.448000e+002, 2.321825e+004
1.449000e+002, 2.324386e+004
1.450000e+002, 2.326361e+004
1.451000e+002, 2.341033e+004
1.452000e+002, 2.326849e+004
1.453000e+002, 2.320135e+004
1.454000e+002, 2.294091e+004
1.455000e+002, 2.300670e+004
1.456000e+002, 2.292991e+004
1.457000e+002, 2.272318e+004
1.458000e+002, 2.270689e+004
1.459000e+002, 2.270848e+004
1.460000e+002, 2.245672e+004
1.461000e+002, 2.246465e+004
#ENDOFDATA   : End Of Data and File
