#FORMAT	     : EMSA/MAS Spectral Data File
#VERSION     : 1.0
#TITLE       : AlN_LowLoss_M__Cheynet_92
#DATE        : 
#TIME        : 
#OWNER       : eelsdatabase.net
#NPOINTS     : 1018
#NCOLUMNS    : 1
#XUNITS      : eV
#YUNITS      : 
#DATATYPE    : XY
#XPERCHAN    : 0.0989
#OFFSET      : -8.7511
#SIGNALTYPE  : ELS
#SPECTRUM    : Spectral Data Starts Here
-8.7511, 193.00
-8.6522, 12.000
-8.5533, -102.00
-8.4545, -52.000
-8.3556, 119.00
-8.2567, 196.00
-8.1578, 112.00
-8.0590, -248.00
-7.9601, -22.999
-7.8612, 117.00
-7.7623, -205.00
-7.6634, -77.000
-7.5646, 130.00
-7.4657, 13.000
-7.3668, 32.000
-7.2679, 58.000
-7.1691, 200.00
-7.0702, -92.000
-6.9713, -72.000
-6.8724, 151.00
-6.7736, -61.000
-6.6747, -4.0000
-6.5758, -89.000
-6.4769, 202.00
-6.3781, 409.00
-6.2792, 305.00
-6.1803, 301.00
-6.0814, 690.00
-5.9826, 423.00
-5.8837, 181.00
-5.7848, 177.00
-5.6859, 229.00
-5.5871, 382.00
-5.4882, 263.00
-5.3893, 89.000
-5.2904, 83.000
-5.1915, 158.00
-5.0927, 420.00
-4.9938, 101.00
-4.8949, 156.00
-4.7960, 189.00
-4.6972, 453.00
-4.5983, 379.00
-4.4994, 397.00
-4.4005, 415.00
-4.3017, 373.00
-4.2028, 333.00
-4.1039, 218.00
-4.0050, 321.00
-3.9062, 838.00
-3.8073, 656.00
-3.7084, 684.00
-3.6095, 744.00
-3.5107, 928.00
-3.4118, 1113.0
-3.3129, 953.00
-3.2140, 1013.0
-3.1152, 949.00
-3.0163, 625.00
-2.9174, 1186.0
-2.8185, 1251.0
-2.7196, 1326.0
-2.6208, 1606.0
-2.5219, 1779.0
-2.4230, 1930.0
-2.3241, 2295.0
-2.2253, 2842.0
-2.1264, 3182.0
-2.0275, 3811.0
-1.9286, 4623.0
-1.8298, 5265.0
-1.7309, 6279.0
-1.6320, 7581.0
-1.5331, 9799.0
-1.4343, 12475
-1.3354, 15962
-1.2365, 20502
-1.1376, 27134
-1.0388, 36430
-0.93993, 48945
-0.84105, 65994
-0.74217, 86326
-0.64330, 1.1131e+05
-0.54442, 1.4130e+05
-0.44555, 1.7249e+05
-0.34667, 2.0189e+05
-0.24779, 2.2287e+05
-0.14892, 2.3734e+05
-0.050046, 2.4244e+05
0.048829, 2.3328e+05
0.14770, 2.1427e+05
0.24658, 1.8910e+05
0.34545, 1.5958e+05
0.44433, 1.2870e+05
0.54320, 98732
0.64208, 73206
0.74096, 52424
0.83983, 36942
0.93871, 25808
1.0375, 17975
1.1364, 13546
1.2353, 10554
1.3342, 8101.0
1.4330, 6849.0
1.5319, 5934.0
1.6308, 5108.0
1.7297, 4336.0
1.8285, 3831.0
1.9274, 3295.0
2.0263, 3034.0
2.1252, 2817.0
2.2241, 2773.0
2.3229, 2541.0
2.4218, 2456.0
2.5207, 2531.0
2.6196, 2378.0
2.7184, 1916.0
2.8173, 1765.0
2.9162, 1760.0
3.0151, 1715.0
3.1139, 1623.0
3.2128, 1646.0
3.3117, 1815.0
3.4106, 1694.0
3.5094, 1616.0
3.6083, 1969.0
3.7072, 1633.0
3.8061, 1634.0
3.9049, 1771.0
4.0038, 1746.0
4.1027, 1711.0
4.2016, 1478.0
4.3004, 1509.0
4.3993, 1735.0
4.4982, 1989.0
4.5971, 1530.0
4.6960, 1372.0
4.7948, 1840.0
4.8937, 1986.0
4.9926, 1703.0
5.0915, 2131.0
5.1903, 1936.0
5.2892, 1747.0
5.3881, 1594.0
5.4870, 1689.0
5.5858, 1816.0
5.6847, 2087.0
5.7836, 1956.0
5.8825, 1606.0
5.9813, 1729.0
6.0802, 1980.0
6.1791, 1928.0
6.2780, 1777.0
6.3768, 2012.0
6.4757, 2136.0
6.5746, 2194.0
6.6735, 2056.0
6.7723, 2147.0
6.8712, 2094.0
6.9701, 2262.0
7.0690, 2330.0
7.1678, 2158.0
7.2667, 2082.0
7.3656, 2155.0
7.4645, 2492.0
7.5634, 2599.0
7.6622, 2361.0
7.7611, 2718.0
7.8600, 2813.0
7.9589, 2619.0
8.0577, 2767.0
8.1566, 2809.0
8.2555, 2828.0
8.3544, 3158.0
8.4532, 3151.0
8.5521, 3069.0
8.6510, 2914.0
8.7499, 2980.0
8.8487, 3386.0
8.9476, 3690.0
9.0465, 3549.0
9.1454, 3488.0
9.2442, 3384.0
9.3431, 3415.0
9.4420, 3856.0
9.5409, 3804.0
9.6398, 3642.0
9.7386, 3745.0
9.8375, 4279.0
9.9364, 3817.0
10.035, 3433.0
10.134, 3686.0
10.233, 4121.0
10.331, 4018.0
10.430, 3996.0
10.529, 3802.0
10.628, 3731.0
10.727, 3987.0
10.826, 4136.0
10.925, 3823.0
11.024, 4164.0
11.122, 4257.0
11.221, 4479.0
11.320, 4510.0
11.419, 4650.0
11.518, 4333.0
11.617, 4613.0
11.716, 4582.0
11.815, 4660.0
11.913, 4777.0
12.012, 4777.0
12.111, 4763.0
12.210, 4716.0
12.309, 4701.0
12.408, 4752.0
12.507, 4754.0
12.606, 4665.0
12.704, 4547.0
12.803, 4669.0
12.902, 4543.0
13.001, 5011.0
13.100, 4921.0
13.199, 4798.0
13.298, 4870.0
13.397, 4744.0
13.495, 5104.0
13.594, 4963.0
13.693, 4845.0
13.792, 4942.0
13.891, 4984.0
13.990, 5192.0
14.089, 5134.0
14.188, 5124.0
14.286, 5044.0
14.385, 5162.0
14.484, 5395.0
14.583, 5685.0
14.682, 5690.0
14.781, 5223.0
14.880, 5749.0
14.979, 5630.0
15.077, 5741.0
15.176, 5689.0
15.275, 5827.0
15.374, 6781.0
15.473, 6638.0
15.572, 6596.0
15.671, 6830.0
15.770, 7621.0
15.868, 7323.0
15.967, 7343.0
16.066, 8078.0
16.165, 7830.0
16.264, 8039.0
16.363, 8288.0
16.462, 8354.0
16.561, 8759.0
16.660, 8996.0
16.758, 9476.0
16.857, 9413.0
16.956, 9650.0
17.055, 10057
17.154, 9965.0
17.253, 10353
17.352, 10643
17.451, 11165
17.549, 11690
17.648, 12349
17.747, 12348
17.846, 12637
17.945, 13027
18.044, 13364
18.143, 13758
18.242, 14472
18.340, 15134
18.439, 15810
18.538, 16312
18.637, 16647
18.736, 17316
18.835, 17702
18.934, 18765
19.033, 19392
19.131, 20154
19.230, 21189
19.329, 21938
19.428, 22528
19.527, 23505
19.626, 24102
19.725, 24956
19.824, 25846
19.922, 26519
20.021, 27105
20.120, 28026
20.219, 28909
20.318, 29334
20.417, 29544
20.516, 29818
20.615, 30110
20.713, 30263
20.812, 30663
20.911, 30677
21.010, 30154
21.109, 29545
21.208, 29878
21.307, 29321
21.406, 28849
21.504, 28558
21.603, 28148
21.702, 27654
21.801, 27106
21.900, 26928
21.999, 25814
22.098, 25809
22.197, 24902
22.295, 24254
22.394, 23555
22.493, 22967
22.592, 22628
22.691, 21857
22.790, 21051
22.889, 21090
22.988, 20890
23.086, 20421
23.185, 19541
23.284, 19069
23.383, 18883
23.482, 18362
23.581, 18219
23.680, 18025
23.779, 17203
23.877, 16685
23.976, 16398
24.075, 15962
24.174, 16175
24.273, 15635
24.372, 15429
24.471, 14885
24.570, 14931
24.668, 15041
24.767, 14470
24.866, 14328
24.965, 14194
25.064, 13927
25.163, 13691
25.262, 13717
25.361, 13246
25.459, 12826
25.558, 12610
25.657, 12515
25.756, 12390
25.855, 12562
25.954, 12669
26.053, 12113
26.152, 11795
26.250, 11873
26.349, 12250
26.448, 11941
26.547, 11966
26.646, 11822
26.745, 11282
26.844, 11320
26.943, 11436
27.041, 11395
27.140, 11412
27.239, 11567
27.338, 11431
27.437, 11200
27.536, 11014
27.635, 11230
27.734, 11217
27.832, 11078
27.931, 10642
28.030, 10872
28.129, 10666
28.228, 10876
28.327, 10831
28.426, 11284
28.525, 10779
28.623, 10564
28.722, 10596
28.821, 10529
28.920, 10594
29.019, 10182
29.118, 10278
29.217, 10334
29.316, 10026
29.414, 9948.0
29.513, 9996.0
29.612, 9624.0
29.711, 9783.0
29.810, 9785.0
29.909, 9340.0
30.008, 9770.0
30.107, 10303
30.205, 9847.0
30.304, 9812.0
30.403, 9340.0
30.502, 9379.0
30.601, 9641.0
30.700, 9223.0
30.799, 9315.0
30.898, 9199.0
30.997, 8942.0
31.095, 9374.0
31.194, 9237.0
31.293, 9428.0
31.392, 9366.0
31.491, 9211.0
31.590, 9016.0
31.689, 9059.0
31.788, 9060.0
31.886, 9047.0
31.985, 9131.0
32.084, 9363.0
32.183, 9025.0
32.282, 8833.0
32.381, 9239.0
32.480, 9435.0
32.579, 8859.0
32.677, 8665.0
32.776, 8840.0
32.875, 8835.0
32.974, 8618.0
33.073, 8778.0
33.172, 8838.0
33.271, 8914.0
33.370, 8924.0
33.468, 8652.0
33.567, 8579.0
33.666, 8656.0
33.765, 8559.0
33.864, 8446.0
33.963, 8397.0
34.062, 8699.0
34.161, 8870.0
34.259, 8482.0
34.358, 8573.0
34.457, 8912.0
34.556, 8786.0
34.655, 8603.0
34.754, 8490.0
34.853, 8893.0
34.952, 8675.0
35.050, 8875.0
35.149, 8923.0
35.248, 8606.0
35.347, 8724.0
35.446, 8655.0
35.545, 8546.0
35.644, 8719.0
35.743, 8602.0
35.841, 8507.0
35.940, 8416.0
36.039, 8841.0
36.138, 8787.0
36.237, 8484.0
36.336, 8932.0
36.435, 8868.0
36.534, 8792.0
36.632, 8455.0
36.731, 8365.0
36.830, 8679.0
36.929, 8486.0
37.028, 8505.0
37.127, 8597.0
37.226, 8774.0
37.325, 9213.0
37.423, 9131.0
37.522, 9159.0
37.621, 8836.0
37.720, 8672.0
37.819, 8969.0
37.918, 8924.0
38.017, 9384.0
38.116, 9312.0
38.214, 9225.0
38.313, 9199.0
38.412, 9069.0
38.511, 9471.0
38.610, 9070.0
38.709, 9373.0
38.808, 9809.0
38.907, 9341.0
39.005, 9286.0
39.104, 9113.0
39.203, 9771.0
39.302, 9736.0
39.401, 9709.0
39.500, 9441.0
39.599, 9407.0
39.698, 9825.0
39.796, 9926.0
39.895, 10141
39.994, 10199
40.093, 10165
40.192, 9859.0
40.291, 9791.0
40.390, 10176
40.489, 10310
40.587, 10541
40.686, 10295
40.785, 10425
40.884, 10189
40.983, 10644
41.082, 10703
41.181, 10858
41.280, 10762
41.378, 10709
41.477, 10960
41.576, 10916
41.675, 10937
41.774, 11048
41.873, 10988
41.972, 10925
42.071, 11072
42.170, 11221
42.268, 11107
42.367, 10873
42.466, 10958
42.565, 11037
42.664, 10931
42.763, 11025
42.862, 10921
42.961, 10852
43.059, 10910
43.158, 10702
43.257, 10858
43.356, 10544
43.455, 10578
43.554, 10197
43.653, 10260
43.752, 10183
43.850, 10238
43.949, 10214
44.048, 10162
44.147, 9982.0
44.246, 10034
44.345, 10032
44.444, 9856.0
44.543, 9686.0
44.641, 9718.0
44.740, 10018
44.839, 9620.0
44.938, 9778.0
45.037, 9625.0
45.136, 9567.0
45.235, 9582.0
45.334, 9542.0
45.432, 9627.0
45.531, 9449.0
45.630, 9156.0
45.729, 9151.0
45.828, 8935.0
45.927, 8860.0
46.026, 8997.0
46.125, 9027.0
46.223, 9077.0
46.322, 9194.0
46.421, 8807.0
46.520, 8830.0
46.619, 8853.0
46.718, 9155.0
46.817, 9145.0
46.916, 8788.0
47.014, 8912.0
47.113, 8929.0
47.212, 8917.0
47.311, 8685.0
47.410, 8794.0
47.509, 8584.0
47.608, 8611.0
47.707, 8185.0
47.805, 8350.0
47.904, 8626.0
48.003, 8597.0
48.102, 8703.0
48.201, 8312.0
48.300, 8058.0
48.399, 8141.0
48.498, 8575.0
48.596, 8772.0
48.695, 8674.0
48.794, 8196.0
48.893, 7956.0
48.992, 8181.0
49.091, 8500.0
49.190, 8101.0
49.289, 7981.0
49.387, 8284.0
49.486, 8278.0
49.585, 8183.0
49.684, 8042.0
49.783, 8193.0
49.882, 8258.0
49.981, 7830.0
50.080, 7822.0
50.178, 7793.0
50.277, 7576.0
50.376, 7305.0
50.475, 7619.0
50.574, 7667.0
50.673, 7646.0
50.772, 7595.0
50.871, 7565.0
50.969, 7873.0
51.068, 7544.0
51.167, 7464.0
51.266, 7619.0
51.365, 7493.0
51.464, 7698.0
51.563, 7191.0
51.662, 7697.0
51.760, 7309.0
51.859, 6895.0
51.958, 7155.0
52.057, 7457.0
52.156, 7491.0
52.255, 7022.0
52.354, 7064.0
52.453, 7440.0
52.551, 7404.0
52.650, 7250.0
52.749, 7022.0
52.848, 7095.0
52.947, 6940.0
53.046, 7281.0
53.145, 7011.0
53.244, 7009.0
53.342, 7127.0
53.441, 7165.0
53.540, 7209.0
53.639, 6848.0
53.738, 7048.0
53.837, 7187.0
53.936, 6873.0
54.035, 7024.0
54.133, 7185.0
54.232, 7072.0
54.331, 6626.0
54.430, 6624.0
54.529, 6821.0
54.628, 6780.0
54.727, 6705.0
54.826, 6898.0
54.924, 6714.0
55.023, 6429.0
55.122, 6458.0
55.221, 6563.0
55.320, 6795.0
55.419, 6451.0
55.518, 6364.0
55.617, 6811.0
55.715, 6548.0
55.814, 6395.0
55.913, 6162.0
56.012, 6632.0
56.111, 6370.0
56.210, 6232.0
56.309, 6921.0
56.408, 6641.0
56.507, 6140.0
56.605, 6285.0
56.704, 6438.0
56.803, 6397.0
56.902, 6129.0
57.001, 6477.0
57.100, 6349.0
57.199, 6210.0
57.298, 6194.0
57.396, 6264.0
57.495, 6450.0
57.594, 6406.0
57.693, 6715.0
57.792, 6519.0
57.891, 6352.0
57.990, 6395.0
58.089, 6548.0
58.187, 6073.0
58.286, 6234.0
58.385, 6179.0
58.484, 6385.0
58.583, 6200.0
58.682, 6071.0
58.781, 6249.0
58.880, 6073.0
58.978, 5983.0
59.077, 6109.0
59.176, 6064.0
59.275, 6027.0
59.374, 6187.0
59.473, 6313.0
59.572, 6233.0
59.671, 6240.0
59.769, 6368.0
59.868, 6015.0
59.967, 6035.0
60.066, 6310.0
60.165, 6513.0
60.264, 6042.0
60.363, 5716.0
60.462, 5911.0
60.560, 5843.0
60.659, 5801.0
60.758, 6038.0
60.857, 6009.0
60.956, 5766.0
61.055, 5938.0
61.154, 6234.0
61.253, 6157.0
61.351, 6008.0
61.450, 5536.0
61.549, 5929.0
61.648, 5808.0
61.747, 6104.0
61.846, 6004.0
61.945, 6166.0
62.044, 6207.0
62.142, 6207.0
62.241, 6017.0
62.340, 5878.0
62.439, 5791.0
62.538, 5877.0
62.637, 5938.0
62.736, 5912.0
62.835, 5735.0
62.933, 5632.0
63.032, 5691.0
63.131, 5785.0
63.230, 6029.0
63.329, 6081.0
63.428, 5657.0
63.527, 6141.0
63.626, 5911.0
63.724, 5586.0
63.823, 5758.0
63.922, 5373.0
64.021, 5585.0
64.120, 5518.0
64.219, 5671.0
64.318, 5301.0
64.417, 5524.0
64.516, 5588.0
64.614, 5535.0
64.713, 5479.0
64.812, 5521.0
64.911, 5644.0
65.010, 5848.0
65.109, 5417.0
65.208, 5521.0
65.307, 5607.0
65.405, 5612.0
65.504, 5696.0
65.603, 4936.0
65.702, 4856.0
65.801, 5524.0
65.900, 5336.0
65.999, 5379.0
66.098, 5788.0
66.196, 5872.0
66.295, 5554.0
66.394, 5566.0
66.493, 5382.0
66.592, 5160.0
66.691, 4821.0
66.790, 5323.0
66.889, 5147.0
66.987, 5181.0
67.086, 5202.0
67.185, 5264.0
67.284, 5375.0
67.383, 5326.0
67.482, 5294.0
67.581, 5200.0
67.680, 4890.0
67.778, 4972.0
67.877, 4993.0
67.976, 5234.0
68.075, 4855.0
68.174, 5178.0
68.273, 5302.0
68.372, 5040.0
68.471, 4646.0
68.569, 5372.0
68.668, 5324.0
68.767, 5065.0
68.866, 5466.0
68.965, 5413.0
69.064, 5440.0
69.163, 5121.0
69.262, 4523.0
69.360, 4541.0
69.459, 4702.0
69.558, 5165.0
69.657, 4990.0
69.756, 5077.0
69.855, 4930.0
69.954, 4577.0
70.053, 4778.0
70.151, 5040.0
70.250, 4945.0
70.349, 5019.0
70.448, 5272.0
70.547, 4823.0
70.646, 4585.0
70.745, 4826.0
70.844, 4619.0
70.942, 4966.0
71.041, 5008.0
71.140, 4969.0
71.239, 4858.0
71.338, 5078.0
71.437, 4764.0
71.536, 4555.0
71.635, 4260.0
71.733, 4658.0
71.832, 4565.0
71.931, 4572.0
72.030, 4477.0
72.129, 4702.0
72.228, 4811.0
72.327, 4739.0
72.426, 4557.0
72.524, 4720.0
72.623, 4486.0
72.722, 4365.0
72.821, 4321.0
72.920, 4519.0
73.019, 4388.0
73.118, 4646.0
73.217, 4448.0
73.315, 4463.0
73.414, 4584.0
73.513, 4466.0
73.612, 4277.0
73.711, 4438.0
73.810, 4928.0
73.909, 4607.0
74.008, 4695.0
74.106, 4420.0
74.205, 4003.0
74.304, 4318.0
74.403, 4212.0
74.502, 4323.0
74.601, 4295.0
74.700, 4161.0
74.799, 4350.0
74.897, 4298.0
74.996, 4320.0
75.095, 4064.0
75.194, 4165.0
75.293, 4373.0
75.392, 4329.0
75.491, 4444.0
75.590, 4709.0
75.688, 4557.0
75.787, 4797.0
75.886, 5019.0
75.985, 4443.0
76.084, 4377.0
76.183, 4888.0
76.282, 4589.0
76.381, 4534.0
76.479, 4446.0
76.578, 4226.0
76.677, 4589.0
76.776, 4614.0
76.875, 4769.0
76.974, 4147.0
77.073, 4339.0
77.172, 4342.0
77.270, 4577.0
77.369, 4550.0
77.468, 4844.0
77.567, 4830.0
77.666, 4679.0
77.765, 4665.0
77.864, 4160.0
77.963, 4316.0
78.062, 4474.0
78.160, 4686.0
78.259, 4440.0
78.358, 4312.0
78.457, 4392.0
78.556, 4640.0
78.655, 4999.0
78.754, 4880.0
78.853, 4599.0
78.951, 4331.0
79.050, 4193.0
79.149, 4449.0
79.248, 4274.0
79.347, 4336.0
79.446, 4147.0
79.545, 3874.0
79.644, 4379.0
79.742, 3852.0
79.841, 4079.0
79.940, 4388.0
80.039, 4449.0
80.138, 4008.0
80.237, 3799.0
80.336, 3689.0
80.435, 3759.0
80.533, 3786.0
80.632, 3752.0
80.731, 3969.0
80.830, 4192.0
80.929, 3982.0
81.028, 3746.0
81.127, 4068.0
81.226, 3911.0
81.324, 3607.0
81.423, 3783.0
81.522, 3654.0
81.621, 3553.0
81.720, 3966.0
81.819, 4363.0
81.918, 4272.0
82.017, 3902.0
82.115, 4195.0
82.214, 4156.0
82.313, 3906.0
82.412, 3757.0
82.511, 3648.0
82.610, 3816.0
82.709, 3917.0
82.808, 3823.0
82.906, 4065.0
83.005, 3929.0
83.104, 3550.0
83.203, 3748.0
83.302, 3641.0
83.401, 3881.0
83.500, 3796.0
83.599, 3779.0
83.697, 3610.0
83.796, 3952.0
83.895, 4027.0
83.994, 4054.0
84.093, 3686.0
84.192, 4088.0
84.291, 3739.0
84.390, 3891.0
84.488, 3900.0
84.587, 3563.0
84.686, 3811.0
84.785, 3543.0
84.884, 3946.0
84.983, 3998.0
85.082, 3535.0
85.181, 3684.0
85.279, 3593.0
85.378, 3007.0
85.477, 3195.0
85.576, 3529.0
85.675, 3646.0
85.774, 3877.0
85.873, 4242.0
85.972, 3647.0
86.070, 3749.0
86.169, 3731.0
86.268, 3712.0
86.367, 3879.0
86.466, 3993.0
86.565, 3828.0
86.664, 3416.0
86.763, 3573.0
86.861, 3687.0
86.960, 3530.0
87.059, 3375.0
87.158, 3343.0
87.257, 3618.0
87.356, 3585.0
87.455, 3672.0
87.554, 3350.0
87.652, 3626.0
87.751, 3882.0
87.850, 3360.0
87.949, 3432.0
88.048, 3923.0
88.147, 3589.0
88.246, 3706.0
88.345, 3497.0
88.443, 3361.0
88.542, 3512.0
88.641, 3116.0
88.740, 3038.0
88.839, 3544.0
88.938, 3780.0
89.037, 3516.0
89.136, 3706.0
89.234, 3764.0
89.333, 3262.0
89.432, 3298.0
89.531, 3174.0
89.630, 3384.0
89.729, 3155.0
89.828, 3420.0
89.927, 3784.0
90.025, 3426.0
90.124, 3462.0
90.223, 3656.0
90.322, 3416.0
90.421, 2876.0
90.520, 3342.0
90.619, 3516.0
90.718, 3846.0
90.816, 3595.0
90.915, 3462.0
91.014, 3267.0
91.113, 3442.0
91.212, 3231.0
91.311, 3376.0
91.410, 3549.0
91.509, 3379.0
91.607, 3321.0
91.706, 3541.0
91.805, 3838.0
#ENDOFDATA   : End Of Data and File
