#FORMAT	     : EMSA/MAS Spectral Data File
#VERSION     : 1.0
#TITLE       : BN_EELS-Low-Loss_Stephan_Odile_225
#DATE        : 
#TIME        : 
#OWNER       : eelsdatabase.net
#NPOINTS     : 546
#NCOLUMNS    : 1
#XUNITS      : eV
#YUNITS      : 
#DATATYPE    : XY
#XPERCHAN    : 0.0477
#OFFSET      : 4.007
#SIGNALTYPE  : ELS
#SPECTRUM    : Spectral Data Starts Here
4.007, -46.6837
4.0547, -85.7397
4.1024, -82.2001
4.1501, -55.0245
4.1978, -57.7923
4.2455, -69.2991
4.2932, -78.0112
4.3409, -67.95
4.3886, -48.3825
4.4363, -24.8913
4.484, -26.5239
4.5317, -37.0999
4.5794, -85.8485
4.6271, -113.088
4.6748, -149.05
4.7225, -143.604
4.7702, -190.339
4.8179, -253.295
4.8656, -263.302
4.9133, -268.389
4.961, -203.009
5.0087, -139.554
5.0564, -136.759
5.1041, -96.9348
5.1518, -20.3574
5.1995, 3.37212
5.2472, -43.1751
5.2949, -106.278
5.3426, -75.874
5.3903, 23.1008
5.438, 113.897
5.4857, 248.28
5.5334, 330.33
5.5811, 432.667
5.6288, 585.606
5.6765, 850.631
5.7242, 1221.59
5.7719, 1701.15
5.8196, 2269.51
5.8673, 2921.43
5.915, 3726.44
5.9627, 4722.65
6.0104, 5925.46
6.0581, 7314.06
6.1058, 8841.32
6.1535, 10600.7
6.2012, 12391.8
6.2489, 14184.6
6.2966, 15776.8
6.3443, 17193.5
6.392, 18339.8
6.4397, 19169.8
6.4874, 19852.6
6.5351, 20179.7
6.5828, 20360
6.6305, 20424.4
6.6782, 20381
6.7259, 20216.2
6.7736, 20026.4
6.8213, 19892.2
6.869, 19772.8
6.9167, 19781.4
6.9644, 19843.3
7.0121, 19821.9
7.0598, 19884.6
7.1075, 20001.7
7.1552, 20117.1
7.2029, 20191.4
7.2506, 20254.1
7.2983, 20379.2
7.346, 20422.1
7.3937, 20358.8
7.4414, 20175.9
7.4891, 19930.4
7.5368, 19624.7
7.5845, 19195.2
7.6322, 18733.7
7.6799, 18220.5
7.7276, 17746
7.7753, 17252.8
7.823, 16747.1
7.8707, 16188.9
7.9184, 15537.2
7.9661, 14908.8
8.0138, 14257.6
8.0615, 13724.7
8.1092, 13136.1
8.1569, 12566.2
8.2046, 11980.8
8.2523, 11526
8.3, 10969.7
8.3477, 10497
8.3954, 10090.2
8.4431, 9730.9
8.4908, 9393.83
8.5385, 9068.32
8.5862, 8743.69
8.6339, 8330.64
8.6816, 8064.48
8.7293, 7836.15
8.777, 7543.91
8.8247, 7285.87
8.8724, 7058.8
8.9201, 6912.01
8.9678, 6731.03
9.0155, 6511.6
9.0632, 6287.62
9.1109, 6148.34
9.1586, 6032.92
9.2063, 5881.21
9.254, 5641.93
9.3017, 5296.08
9.3494, 4997.32
9.3971, 4751.71
9.4448, 4611.85
9.4925, 4427.57
9.5402, 4287.51
9.5879, 4128.35
9.6356, 4053.8
9.6833, 3881.6
9.731, 3792.35
9.7787, 3701.62
9.8264, 3600.48
9.8741, 3526.31
9.9218, 3440.79
9.9695, 3402.9
10.0172, 3331.26
10.0649, 3297.33
10.1126, 3264.83
10.1603, 3184.11
10.208, 3113.45
10.2557, 3136.97
10.3034, 3168.37
10.3511, 3219.49
10.3988, 3227.82
10.4465, 3243.04
10.4942, 3226.49
10.5419, 3226.73
10.5896, 3212.4
10.6373, 3184.41
10.685, 3197.12
10.7327, 3218.29
10.7804, 3221.01
10.8281, 3243.99
10.8758, 3236.04
10.9235, 3256.18
10.9712, 3319.79
11.0189, 3328.24
11.0666, 3331.52
11.1143, 3307.51
11.162, 3299.33
11.2097, 3282.7
11.2574, 3252.67
11.3051, 3254.32
11.3528, 3243.74
11.4005, 3286.6
11.4482, 3337.2
11.4959, 3326.38
11.5436, 3322.72
11.5913, 3261.49
11.639, 3285.08
11.6867, 3273.46
11.7344, 3205.06
11.7821, 3139.84
11.8298, 3060.32
11.8775, 3024.14
11.9252, 2951.29
11.9729, 2916.95
12.0206, 2936.67
12.0683, 2917.93
12.116, 2915.19
12.1637, 2901.98
12.2114, 2919.33
12.2591, 2926.6
12.3068, 2865.09
12.3545, 2805.46
12.4022, 2817.46
12.4499, 2825.92
12.4976, 2806.85
12.5453, 2793.78
12.593, 2776.32
12.6407, 2751.61
12.6884, 2739.08
12.7361, 2770.34
12.7838, 2733.22
12.8315, 2673.83
12.8792, 2692.96
12.9269, 2692.6
12.9746, 2746.46
13.0223, 2778.19
13.07, 2782.73
13.1177, 2826
13.1654, 2866
13.2131, 2917.9
13.2608, 2937.18
13.3085, 2932.8
13.3562, 3003.49
13.4039, 3093.46
13.4516, 3134.3
13.4993, 3167.23
13.547, 3251.89
13.5947, 3391.95
13.6424, 3408.14
13.6901, 3563.8
13.7378, 3644.1
13.7855, 3749.17
13.8332, 3854.34
13.8809, 4012.57
13.9286, 4163.92
13.9763, 4254.14
14.024, 4404.69
14.0717, 4568.46
14.1194, 4692.37
14.1671, 4877.94
14.2148, 5044.4
14.2625, 5199.99
14.3102, 5464.09
14.3579, 5711.85
14.4056, 6052.86
14.4533, 6317.05
14.501, 6615.67
14.5487, 6833.75
14.5964, 7231.84
14.6441, 7614.71
14.6918, 8004.49
14.7395, 8390.13
14.7872, 8839.33
14.8349, 9257.93
14.8826, 9764.21
14.9303, 10292.6
14.978, 10797.1
15.0257, 11364.9
15.0734, 11983.2
15.1211, 12563.7
15.1688, 13168.7
15.2165, 13786.9
15.2642, 14272.6
15.3119, 14850.1
15.3596, 15432
15.4073, 15958.7
15.455, 16390.1
15.5027, 16828.5
15.5504, 17302.6
15.5981, 17762.6
15.6458, 18264.5
15.6935, 18619.9
15.7412, 19016.8
15.7889, 19401.9
15.8366, 19788.5
15.8843, 20003.2
15.932, 20324.5
15.9797, 20556.6
16.0274, 20850.4
16.0751, 21199.7
16.1228, 21428.4
16.1705, 21734.2
16.2182, 21947.8
16.2659, 22179.3
16.3136, 22410.8
16.3613, 22583.9
16.409, 22622
16.4567, 22722.6
16.5044, 22848
16.5521, 23049.9
16.5998, 23080.9
16.6475, 23140.7
16.6952, 23191.1
16.7429, 23263.1
16.7906, 23240.7
16.8383, 23265.1
16.886, 23197.3
16.9337, 23043.8
16.9814, 22938.3
17.0291, 22893.4
17.0768, 22901.9
17.1245, 22955.6
17.1722, 22872.3
17.2199, 22806.9
17.2676, 22690.1
17.3153, 22660.5
17.363, 22612.6
17.4107, 22631.8
17.4584, 22570.9
17.5061, 22505
17.5538, 22500.6
17.6015, 22383.3
17.6492, 22331.8
17.6969, 22248.6
17.7446, 22134.2
17.7923, 21999.6
17.84, 21986
17.8877, 21909.4
17.9354, 21860.7
17.9831, 21758.2
18.0308, 21698.8
18.0785, 21752.4
18.1262, 21610.1
18.1739, 21519.7
18.2216, 21446.9
18.2693, 21402.1
18.317, 21293.1
18.3647, 21203.7
18.4124, 21044.8
18.4601, 20921.7
18.5078, 20786.2
18.5555, 20752.7
18.6032, 20752.2
18.6509, 20707.9
18.6986, 20637.1
18.7463, 20506
18.794, 20435.7
18.8417, 20369.3
18.8894, 20165.3
18.9371, 20139.5
18.9848, 20047.9
19.0325, 19991.3
19.0802, 19897.4
19.1279, 19702.2
19.1756, 19650.6
19.2233, 19471.4
19.271, 19349.5
19.3187, 19201.8
19.3664, 19084.2
19.4141, 19009.9
19.4618, 18784.5
19.5095, 18783.7
19.5572, 18811.2
19.6049, 18819.7
19.6526, 18827.9
19.7003, 18769.9
19.748, 18671.7
19.7957, 18628.7
19.8434, 18535.7
19.8911, 18511.2
19.9388, 18398.9
19.9865, 18310.9
20.0342, 18254
20.0819, 18135.1
20.1296, 18063.3
20.1773, 18042.3
20.225, 18027.5
20.2727, 17966.2
20.3204, 17897.9
20.3681, 17770.6
20.4158, 17631
20.4635, 17557.9
20.5112, 17469.2
20.5589, 17447
20.6066, 17284.2
20.6543, 17310.5
20.702, 17240.3
20.7497, 17173.6
20.7974, 17041.4
20.8451, 16882.9
20.8928, 16771.1
20.9405, 16611.5
20.9882, 16501.3
21.0359, 16386
21.0836, 16304.2
21.1313, 16268.1
21.179, 16279.4
21.2267, 16238
21.2744, 16229.1
21.3221, 16175.2
21.3698, 16114.9
21.4175, 16098
21.4652, 16062.5
21.5129, 16048.6
21.5606, 16059.2
21.6083, 15983
21.656, 15830.1
21.7037, 15740.2
21.7514, 15717.8
21.7991, 15682.4
21.8468, 15703.5
21.8945, 15638.2
21.9422, 15588.7
21.9899, 15491.2
22.0376, 15407.6
22.0853, 15360.7
22.133, 15292.1
22.1807, 15274.9
22.2284, 15244.9
22.2761, 15066.7
22.3238, 15015.3
22.3715, 14910.9
22.4192, 14808.3
22.4669, 14710.4
22.5146, 14651.9
22.5623, 14538.8
22.61, 14212
22.6577, 13617.4
22.7054, 13304.1
22.7531, 13491.9
22.8008, 13959.4
22.8485, 14033.5
22.8962, 14031.5
22.9439, 13949.9
22.9916, 14115.9
23.0393, 14001.7
23.087, 13938
23.1347, 13945.8
23.1824, 13902.8
23.2301, 13846.3
23.2778, 13747.7
23.3255, 13603.5
23.3732, 13459.7
23.4209, 13388.4
23.4686, 13402.5
23.5163, 13233.7
23.564, 13181.4
23.6117, 13126.5
23.6594, 12979.1
23.7071, 12879.3
23.7548, 12834.4
23.8025, 12829.3
23.8502, 12639.9
23.8979, 12561.5
23.9456, 12531.6
23.9933, 12534.3
24.041, 12357.7
24.0887, 12211.9
24.1364, 12057.6
24.1841, 11937.6
24.2318, 11889.9
24.2795, 11841
24.3272, 11749.5
24.3749, 11536.7
24.4226, 11484
24.4703, 11268.5
24.518, 11156.1
24.5657, 11035.6
24.6134, 11006
24.6611, 10919
24.7088, 10811.8
24.7565, 10811.7
24.8042, 10695.4
24.8519, 10597.1
24.8996, 10546.7
24.9473, 10530.9
24.995, 10407
25.0427, 10240.3
25.0904, 10124.9
25.1381, 10000.9
25.1858, 9964.17
25.2335, 9884.34
25.2812, 9793.65
25.3289, 9688.14
25.3766, 9538.83
25.4243, 9530.59
25.472, 9394.06
25.5197, 9366.67
25.5674, 9354.46
25.6151, 9269.46
25.6628, 9118.17
25.7105, 8938.81
25.7582, 8934.59
25.8059, 8873.82
25.8536, 8816.54
25.9013, 8716.94
25.949, 8540.13
25.9967, 8561.38
26.0444, 8568.13
26.0921, 8505.61
26.1398, 8304.95
26.1875, 8230.04
26.2352, 8320.39
26.2829, 8255.58
26.3306, 8098.99
26.3783, 8019.72
26.426, 8033.65
26.4737, 7909.64
26.5214, 7821.91
26.5691, 7808.72
26.6168, 7690.61
26.6645, 7592.7
26.7122, 7506.48
26.7599, 7415.05
26.8076, 7265.05
26.8553, 7129.64
26.903, 7099.73
26.9507, 7052.84
26.9984, 7040.28
27.0461, 6966.56
27.0938, 6944.32
27.1415, 6776.85
27.1892, 6745.62
27.2369, 6694.42
27.2846, 6584.44
27.3323, 6487.15
27.38, 6387.98
27.4277, 6266.78
27.4754, 6160.18
27.5231, 6188.03
27.5708, 6149.57
27.6185, 6065.78
27.6662, 6007.81
27.7139, 5915.6
27.7616, 5898.88
27.8093, 5834.68
27.857, 5820.8
27.9047, 5766.25
27.9524, 5704.03
28.0001, 5645.98
28.0478, 5582.08
28.0955, 5499.59
28.1432, 5390.13
28.1909, 5388.36
28.2386, 5354.59
28.2863, 5290.34
28.334, 5272.64
28.3817, 5239.49
28.4294, 5188.81
28.4771, 5191.14
28.5248, 5116.57
28.5725, 5074.22
28.6202, 4979.33
28.6679, 4901.93
28.7156, 4872.3
28.7633, 4714.79
28.811, 4677.9
28.8587, 4669.83
28.9064, 4636.29
28.9541, 4608.02
29.0018, 4540.11
29.0495, 4490.26
29.0972, 4434.22
29.1449, 4408.84
29.1926, 4286.88
29.2403, 4276.19
29.288, 4282.69
29.3357, 4230.19
29.3834, 4215.23
29.4311, 4223.04
29.4788, 4167.11
29.5265, 4130.73
29.5742, 4087
29.6219, 4105.16
29.6696, 4103.06
29.7173, 4078.59
29.765, 4064.72
29.8127, 3989.12
29.8604, 3988.55
29.9081, 3978.63
29.9558, 3944.34
30.0035, 3876.9
#ENDOFDATA   : End Of Data and File
