#FORMAT	     : EMSA/MAS Spectral Data File
#VERSION     : 1.0
#TITLE       : Al2O3_(alpha)_Al_L3_Stefan_Nufer_52
#DATE        : 
#TIME        : 
#OWNER       : eelsdatabase.net
#NPOINTS     : 670
#NCOLUMNS    : 1
#XUNITS      : eV
#YUNITS      : 
#DATATYPE    : XY
#XPERCHAN    : 0.098503
#OFFSET      : 71.177994
#SIGNALTYPE  : ELS
#SPECTRUM    : Spectral Data Starts Here
71.177994, -11.296875
71.276497, -34.476562
71.375000, 26.187500
71.473503, 24.406250
71.572006, 15.843750
71.670509, -29.656250
71.769012, 5.945312
71.867516, 49.492188
71.966019, 69.859375
72.064522, 120.703125
72.163025, 5.039062
72.261528, 68.015625
72.360031, -115.843750
72.458534, -82.984375
72.557037, 10.257812
72.655540, -85.179688
72.754044, 22.476562
72.852547, -129.320312
72.951050, -75.679688
73.049553, -56.140625
73.148056, 76.109375
73.246559, -35.187500
73.345062, 101.875000
73.443565, -97.554688
73.542068, -57.492188
73.640572, 67.960938
73.739075, 61.726562
73.837578, 7.039062
73.936081, 76.851562
74.034584, 202.195312
74.133087, 176.117188
74.231590, 295.289062
74.330093, 340.054688
74.428596, 340.468750
74.527100, 364.468750
74.625603, 315.914062
74.724106, 420.109375
74.822609, 504.835938
74.921112, 494.507812
75.019615, 676.164062
75.118118, 752.742188
75.216621, 927.359375
75.315125, 1032.132812
75.413628, 1177.757812
75.512131, 1296.414062
75.610634, 1374.015625
75.709137, 1600.796875
75.807640, 1747.531250
75.906143, 1911.226562
76.004646, 2364.210938
76.103149, 2672.437500
76.201653, 2817.132812
76.300156, 3352.250000
76.398659, 3747.242188
76.497162, 4168.460938
76.595665, 4842.968750
76.694168, 5752.687500
76.792671, 6839.148438
76.891174, 8379.625000
76.989677, 10377.906250
77.088181, 12923.140625
77.186684, 15590.015625
77.285187, 18380.265625
77.383690, 21346.320312
77.482193, 24671.867188
77.580696, 27727.070312
77.679199, 30205.765625
77.777702, 31386.664062
77.876205, 31488.640625
77.974709, 30774.585938
78.073212, 29720.890625
78.171715, 28427.921875
78.270218, 27425.460938
78.368721, 26770.828125
78.467224, 26450.210938
78.565727, 26329.171875
78.664230, 26236.515625
78.762733, 26059.968750
78.861237, 25999.914062
78.959740, 25877.164062
79.058243, 25772.406250
79.156746, 25496.281250
79.255249, 25165.921875
79.353752, 24686.906250
79.452255, 24233.257812
79.550758, 23574.960938
79.649261, 23036.062500
79.747765, 22577.812500
79.846268, 21999.625000
79.944771, 21436.109375
80.043274, 20913.765625
80.141777, 20576.406250
80.240280, 20038.906250
80.338783, 19745.703125
80.437286, 19421.562500
80.535789, 19147.703125
80.634293, 18940.312500
80.732796, 18971.429688
80.831299, 18860.453125
80.929802, 18881.296875
81.028305, 18851.109375
81.126808, 19058.757812
81.225311, 19145.382812
81.323814, 19292.289062
81.422318, 19420.195312
81.520821, 19494.414062
81.619324, 19486.125000
81.717827, 19451.242188
81.816330, 19310.789062
81.914833, 19244.921875
82.013336, 19120.687500
82.111839, 18924.109375
82.210342, 18845.835938
82.308846, 18647.500000
82.407349, 18576.992188
82.505852, 18467.609375
82.604355, 18430.179688
82.702858, 18392.812500
82.801361, 18352.171875
82.899864, 18319.187500
82.998367, 18432.203125
83.096870, 18459.210938
83.195374, 18628.375000
83.293877, 18736.210938
83.392380, 18894.546875
83.490883, 18880.968750
83.589386, 18966.906250
83.687889, 19067.312500
83.786392, 19109.421875
83.884895, 19264.062500
83.983398, 19324.718750
84.081902, 19273.585938
84.180405, 19167.070312
84.278908, 19037.421875
84.377411, 18888.734375
84.475914, 18605.210938
84.574417, 18473.632812
84.672920, 18255.445312
84.771423, 17945.929688
84.869926, 17614.851562
84.968430, 17317.125000
85.066933, 17116.273438
85.165436, 16775.375000
85.263939, 16449.296875
85.362442, 16135.570312
85.460945, 15905.898438
85.559448, 15635.593750
85.657951, 15543.031250
85.756454, 15353.164062
85.854958, 15228.531250
85.953461, 14996.046875
86.051964, 14818.273438
86.150467, 14856.492188
86.248970, 14708.304688
86.347473, 14549.218750
86.445976, 14330.890625
86.544479, 14278.742188
86.642982, 14073.070312
86.741486, 13757.929688
86.839989, 13546.875000
86.938492, 13296.812500
87.036995, 13025.546875
87.135498, 12822.671875
87.234001, 12571.468750
87.332504, 12234.093750
87.431007, 12027.921875
87.529510, 11817.273438
87.628014, 11685.867188
87.726517, 11484.382812
87.825020, 11259.171875
87.923523, 11113.195312
88.022026, 11018.507812
88.120529, 11013.867188
88.219032, 10870.140625
88.317535, 10670.875000
88.416039, 10643.078125
88.514542, 10628.882812
88.613045, 10464.703125
88.711548, 10366.539062
88.810051, 10396.179688
88.908554, 10355.687500
89.007057, 10337.078125
89.105560, 10332.132812
89.204063, 10355.390625
89.302567, 10274.648438
89.401070, 10242.406250
89.499573, 10224.218750
89.598076, 10139.148438
89.696579, 9935.679688
89.795082, 9915.203125
89.893585, 9908.671875
89.992088, 9941.812500
90.090591, 9752.031250
90.189095, 9759.710938
90.287598, 9726.625000
90.386101, 9702.164062
90.484604, 9665.664062
90.583107, 9762.734375
90.681610, 9769.320312
90.780113, 9973.273438
90.878616, 10060.101562
90.977119, 10264.218750
91.075623, 10504.007812
91.174126, 10685.335938
91.272629, 10925.906250
91.371132, 11304.804688
91.469635, 11638.453125
91.568138, 11981.609375
91.666641, 12323.296875
91.765144, 12682.367188
91.863647, 13121.671875
91.962151, 13428.828125
92.060654, 13914.328125
92.159157, 14482.390625
92.257660, 14973.023438
92.356163, 15469.679688
92.454666, 15894.375000
92.553169, 16518.453125
92.651672, 17111.656250
92.750175, 17600.750000
92.848679, 18173.929688
92.947182, 18767.882812
93.045685, 19329.257812
93.144188, 19911.679688
93.242691, 20672.609375
93.341194, 21252.062500
93.439697, 21871.015625
93.538200, 22429.328125
93.636703, 23003.218750
93.735207, 23474.320312
93.833710, 23927.093750
93.932213, 24200.054688
94.030716, 24656.796875
94.129219, 24975.019531
94.227722, 25357.683594
94.326225, 25499.714844
94.424728, 25764.140625
94.523232, 26034.605469
94.621735, 26220.082031
94.720238, 26331.863281
94.818741, 26531.480469
94.917244, 26597.746094
95.015747, 26727.613281
95.114250, 26923.542969
95.212753, 27132.933594
95.311256, 27381.812500
95.409760, 27567.472656
95.508263, 27733.402344
95.606766, 28129.781250
95.705269, 28275.484375
95.803772, 28564.085938
95.902275, 28677.351562
96.000778, 28928.289062
96.099281, 29158.421875
96.197784, 29460.570312
96.296288, 29654.367188
96.394791, 29771.425781
96.493294, 29962.902344
96.591797, 30140.644531
96.690300, 30324.695312
96.788803, 30510.843750
96.887306, 30793.816406
96.985809, 31008.265625
97.084312, 31329.601562
97.182816, 31541.925781
97.281319, 31903.597656
97.379822, 32159.070312
97.478325, 32422.839844
97.576828, 32779.574219
97.675331, 33124.910156
97.773834, 33434.203125
97.872337, 33737.800781
97.970840, 34075.605469
98.069344, 34396.742188
98.167847, 34527.378906
98.266350, 34602.394531
98.364853, 34858.425781
98.463356, 34841.531250
98.561859, 34627.726562
98.660362, 34565.769531
98.758865, 34148.800781
98.857368, 33932.164062
98.955872, 33545.089844
99.054375, 32933.468750
99.152878, 32393.250000
99.251381, 31834.875000
99.349884, 30617.554688
99.448387, 29653.941406
99.546890, 28802.503906
99.645393, 27929.460938
99.743896, 28132.976562
99.842400, 27593.839844
99.940903, 27486.046875
100.039406, 27080.531250
100.137909, 26630.199219
100.236412, 26297.496094
100.334915, 25835.941406
100.433418, 25548.035156
100.531921, 25302.949219
100.630424, 24889.906250
100.728928, 24721.980469
100.827431, 24380.492188
100.925934, 24122.046875
101.024437, 23956.066406
101.122940, 23707.250000
101.221443, 23523.707031
101.319946, 23336.679688
101.418449, 23146.058594
101.516953, 23032.855469
101.615456, 22845.804688
101.713959, 22730.148438
101.812462, 22534.730469
101.910965, 22306.730469
102.009468, 22118.644531
102.107971, 22011.675781
102.206474, 21869.285156
102.304977, 21719.648438
102.403481, 21515.589844
102.501984, 21393.257812
102.600487, 21275.648438
102.698990, 21091.859375
102.797493, 20917.269531
102.895996, 20779.226562
102.994499, 20580.269531
103.093002, 20360.679688
103.191505, 20230.304688
103.290009, 20038.816406
103.388512, 19883.367188
103.487015, 19693.429688
103.585518, 19499.281250
103.684021, 19360.738281
103.782524, 19201.171875
103.881027, 19045.074219
103.979530, 18925.910156
104.078033, 18833.566406
104.176537, 18577.035156
104.275040, 18485.273438
104.373543, 18275.792969
104.472046, 18065.300781
104.570549, 17874.089844
104.669052, 17740.867188
104.767555, 17586.519531
104.866058, 17378.914062
104.964561, 17298.898438
105.063065, 17083.339844
105.161568, 16942.035156
105.260071, 16747.660156
105.358574, 16671.425781
105.457077, 16471.289062
105.555580, 16304.574219
105.654083, 16185.117188
105.752586, 16139.386719
105.851089, 16026.925781
105.949593, 15955.007812
106.048096, 15821.140625
106.146599, 15746.839844
106.245102, 15704.750000
106.343605, 15578.699219
106.442108, 15561.203125
106.540611, 15457.011719
106.639114, 15328.699219
106.737617, 15326.609375
106.836121, 15272.585938
106.934624, 15288.472656
107.033127, 15286.179688
107.131630, 15313.828125
107.230133, 15307.226562
107.328636, 15215.781250
107.427139, 15205.707031
107.525642, 15179.480469
107.624146, 15196.605469
107.722649, 15169.406250
107.821152, 15268.707031
107.919655, 15256.457031
108.018158, 15343.777344
108.116661, 15299.113281
108.215164, 15365.328125
108.313667, 15354.085938
108.412170, 15293.160156
108.510674, 15323.039062
108.609177, 15359.589844
108.707680, 15407.750000
108.806183, 15417.667969
108.904686, 15419.015625
109.003189, 15425.914062
109.101692, 15480.414062
109.200195, 15536.277344
109.298698, 15399.992188
109.397202, 15413.910156
109.495705, 15452.082031
109.594208, 15552.046875
109.692711, 15520.246094
109.791214, 15564.074219
109.889717, 15503.292969
109.988220, 15449.097656
110.086723, 15369.179688
110.185226, 15361.726562
110.283730, 15389.070312
110.382233, 15339.070312
110.480736, 15383.601562
110.579239, 15446.910156
110.677742, 15367.382812
110.776245, 15287.156250
110.874748, 15302.714844
110.973251, 15290.785156
111.071754, 15228.886719
111.170258, 15165.406250
111.268761, 15164.410156
111.367264, 15199.441406
111.465767, 15081.343750
111.564270, 14993.816406
111.662773, 14904.363281
111.761276, 14830.242188
111.859779, 14839.066406
111.958282, 14803.613281
112.056786, 14801.585938
112.155289, 14767.660156
112.253792, 14745.457031
112.352295, 14774.718750
112.450798, 14724.089844
112.549301, 14700.527344
112.647804, 14653.914062
112.746307, 14704.121094
112.844810, 14622.007812
112.943314, 14655.730469
113.041817, 14608.027344
113.140320, 14635.589844
113.238823, 14631.882812
113.337326, 14638.863281
113.435829, 14643.457031
113.534332, 14627.050781
113.632835, 14658.117188
113.731339, 14606.175781
113.829842, 14688.882812
113.928345, 14661.531250
114.026848, 14614.750000
114.125351, 14625.859375
114.223854, 14570.175781
114.322357, 14620.140625
114.420860, 14645.476562
114.519363, 14693.691406
114.617867, 14628.984375
114.716370, 14673.464844
114.814873, 14649.593750
114.913376, 14677.554688
115.011879, 14713.015625
115.110382, 14693.203125
115.208885, 14688.160156
115.307388, 14667.824219
115.405891, 14673.449219
115.504395, 14695.777344
115.602898, 14669.781250
115.701401, 14664.375000
115.799904, 14654.757812
115.898407, 14570.351562
115.996910, 14604.730469
116.095413, 14677.359375
116.193916, 14640.136719
116.292419, 14639.695312
116.390923, 14644.875000
116.489426, 14652.097656
116.587929, 14648.332031
116.686432, 14712.203125
116.784935, 14733.769531
116.883438, 14835.050781
116.981941, 14831.238281
117.080444, 14925.875000
117.178947, 14937.187500
117.277451, 14933.691406
117.375954, 14942.531250
117.474457, 15032.191406
117.572960, 15047.207031
117.671463, 15117.054688
117.769966, 15169.597656
117.868469, 15182.128906
117.966972, 15179.355469
118.065475, 15234.484375
118.163979, 15292.144531
118.262482, 15347.398438
118.360985, 15465.601562
118.459488, 15536.632812
118.557991, 15596.031250
118.656494, 15723.425781
118.754997, 15713.492188
118.853500, 15807.640625
118.952003, 15900.839844
119.050507, 15933.867188
119.149010, 16004.660156
119.247513, 16047.972656
119.346016, 16091.238281
119.444519, 16198.769531
119.543022, 16153.871094
119.641525, 16251.960938
119.740028, 16338.140625
119.838531, 16379.972656
119.937035, 16449.804688
120.035538, 16484.832031
120.134041, 16540.195312
120.232544, 16580.820312
120.331047, 16597.890625
120.429550, 16611.179688
120.528053, 16636.722656
120.626556, 16743.265625
120.725060, 16772.050781
120.823563, 16868.312500
120.922066, 16955.343750
121.020569, 17092.117188
121.119072, 17063.859375
121.217575, 17116.605469
121.316078, 17171.546875
121.414581, 17274.996094
121.513084, 17272.089844
121.611588, 17334.582031
121.710091, 17431.464844
121.808594, 17506.539062
121.907097, 17512.250000
122.005600, 17556.613281
122.104103, 17632.050781
122.202606, 17669.632812
122.301109, 17669.210938
122.399612, 17739.863281
122.498116, 17839.210938
122.596619, 17863.632812
122.695122, 17930.855469
122.793625, 17964.707031
122.892128, 18118.789062
122.990631, 18153.640625
123.089134, 18317.511719
123.187637, 18364.140625
123.286140, 18399.027344
123.384644, 18480.128906
123.483147, 18558.109375
123.581650, 18662.585938
123.680153, 18749.273438
123.778656, 18860.101562
123.877159, 18903.597656
123.975662, 19039.601562
124.074165, 19144.910156
124.172668, 19254.644531
124.271172, 19263.921875
124.369675, 19334.925781
124.468178, 19378.046875
124.566681, 19467.527344
124.665184, 19449.113281
124.763687, 19449.808594
124.862190, 19452.695312
124.960693, 19391.773438
125.059196, 19388.292969
125.157700, 19350.910156
125.256203, 19178.929688
125.354706, 19125.320312
125.453209, 18989.929688
125.551712, 18920.792969
125.650215, 18797.433594
125.748718, 18711.933594
125.847221, 18593.136719
125.945724, 18441.335938
126.044228, 18315.585938
126.142731, 18238.250000
126.241234, 18117.605469
126.339737, 18065.742188
126.438240, 17980.039062
126.536743, 17952.937500
126.635246, 17874.576172
126.733749, 17875.447266
126.832253, 17741.523438
126.930756, 17734.994141
127.029259, 17712.490234
127.127762, 17609.726562
127.226265, 17647.035156
127.324768, 17606.296875
127.423271, 17577.583984
127.521774, 17602.576172
127.620277, 17566.107422
127.718781, 17508.097656
127.817284, 17517.322266
127.915787, 17466.767578
128.014282, 17488.160156
128.112778, 17443.062500
128.211273, 17435.408203
128.309769, 17357.183594
128.408264, 17386.716797
128.506760, 17428.869141
128.605255, 17338.318359
128.703751, 17354.361328
128.802246, 17247.695312
128.900742, 17223.253906
128.999237, 17185.328125
129.097733, 17164.316406
129.196228, 17114.861328
129.294724, 17057.031250
129.393219, 17026.798828
129.491714, 17049.832031
129.590210, 16973.757812
129.688705, 16873.490234
129.787201, 16852.619141
129.885696, 16799.031250
129.984192, 16726.677734
130.082687, 16659.390625
130.181183, 16560.351562
130.279678, 16517.498047
130.378174, 16441.707031
130.476669, 16394.019531
130.575165, 16285.257812
130.673660, 16232.591797
130.772156, 16145.087891
130.870651, 16052.734375
130.969147, 16006.859375
131.067642, 15890.519531
131.166138, 15801.910156
131.264633, 15751.501953
131.363129, 15645.371094
131.461624, 15619.871094
131.560120, 15569.183594
131.658615, 15517.769531
131.757111, 15415.550781
131.855606, 15367.117188
131.954102, 15304.160156
132.052597, 15149.333984
132.151093, 15081.283203
132.249588, 15053.285156
132.348083, 15019.800781
132.446579, 15018.859375
132.545074, 15013.470703
132.643570, 14990.533203
132.742065, 14927.121094
132.840561, 14858.849609
132.939056, 14826.255859
133.037552, 14854.888672
133.136047, 14792.412109
133.234543, 14806.240234
133.333038, 14780.935547
133.431534, 14691.769531
133.530029, 14658.171875
133.628525, 14676.796875
133.727020, 14673.802734
133.825516, 14675.980469
133.924011, 14685.621094
134.022507, 14599.271484
134.121002, 14576.744141
134.219498, 14583.576172
134.317993, 14545.484375
134.416489, 14505.632812
134.514984, 14533.871094
134.613480, 14584.792969
134.711975, 14555.675781
134.810471, 14538.931641
134.908966, 14574.681641
135.007462, 14578.402344
135.105957, 14512.031250
135.204453, 14549.900391
135.302948, 14524.093750
135.401443, 14562.255859
135.499939, 14548.697266
135.598434, 14569.046875
135.696930, 14576.703125
135.795425, 14602.205078
135.893921, 14681.734375
135.992416, 14619.253906
136.090912, 14600.166016
136.189407, 14603.777344
136.287903, 14652.437500
136.386398, 14650.763672
136.484894, 14597.027344
136.583389, 14646.000000
136.681885, 14676.580078
136.780380, 14691.472656
136.878876, 14695.843750
136.977371, 14795.759766
137.075867, 14783.802734
#ENDOFDATA   : End Of Data and File
