#FORMAT	     : EMSA/MAS Spectral Data File
#VERSION     : 1.0
#TITLE       : Al2O3_(alpha)_Al_L3_Daniele_Bouchet_45
#DATE        : 
#TIME        : 
#OWNER       : eelsdatabase.net
#NPOINTS     : 957
#NCOLUMNS    : 1
#XUNITS      : eV
#YUNITS      : 
#DATATYPE    : XY
#XPERCHAN    : 0.099999
#OFFSET      : 5.1100002E+01
#SIGNALTYPE  : ELS
#SPECTRUM    : Spectral Data Starts Here
5.1100002E+01, 4.9614291E+05
5.1200001E+01, 4.9302484E+05
5.1300003E+01, 4.9060747E+05
5.1400002E+01, 4.8817238E+05
5.1500000E+01, 4.8460878E+05
5.1600002E+01, 4.8089516E+05
5.1700001E+01, 4.7820325E+05
5.1800003E+01, 4.7802594E+05
5.1900002E+01, 4.7507744E+05
5.2000000E+01, 4.7213891E+05
5.2100002E+01, 4.7155347E+05
5.2200001E+01, 4.6941928E+05
5.2300003E+01, 4.6791278E+05
5.2400002E+01, 4.6522828E+05
5.2500000E+01, 4.6299403E+05
5.2600002E+01, 4.5972544E+05
5.2700001E+01, 4.5849194E+05
5.2800003E+01, 4.5989447E+05
5.2900002E+01, 4.5820784E+05
5.3000000E+01, 4.5306150E+05
5.3100002E+01, 4.4976038E+05
5.3200001E+01, 4.5131459E+05
5.3300003E+01, 4.5401028E+05
5.3400002E+01, 4.5309022E+05
5.3500000E+01, 4.4920194E+05
5.3600002E+01, 4.4791088E+05
5.3700001E+01, 4.4588766E+05
5.3800003E+01, 4.4395219E+05
5.3900002E+01, 4.4155328E+05
5.4000000E+01, 4.3984738E+05
5.4100002E+01, 4.3641547E+05
5.4200001E+01, 4.3588403E+05
5.4300003E+01, 4.3537431E+05
5.4400002E+01, 4.3364409E+05
5.4500000E+01, 4.3227150E+05
5.4600002E+01, 4.3152850E+05
5.4700001E+01, 4.3010866E+05
5.4800003E+01, 4.3041444E+05
5.4900002E+01, 4.2892403E+05
5.5000000E+01, 4.2568128E+05
5.5100002E+01, 4.2420238E+05
5.5200001E+01, 4.2162859E+05
5.5300003E+01, 4.2195306E+05
5.5400002E+01, 4.1964638E+05
5.5500000E+01, 4.1701366E+05
5.5600002E+01, 4.1480378E+05
5.5700001E+01, 4.1289447E+05
5.5800003E+01, 4.1132400E+05
5.5900002E+01, 4.1035284E+05
5.6000000E+01, 4.0959488E+05
5.6100002E+01, 4.0926456E+05
5.6200001E+01, 4.0806600E+05
5.6300003E+01, 4.0604916E+05
5.6400002E+01, 4.0414941E+05
5.6500000E+01, 4.0194881E+05
5.6600002E+01, 4.0082766E+05
5.6700001E+01, 3.9934166E+05
5.6800003E+01, 3.9861194E+05
5.6900002E+01, 3.9676288E+05
5.7000000E+01, 3.9399088E+05
5.7100002E+01, 3.9344975E+05
5.7200001E+01, 3.9098009E+05
5.7300003E+01, 3.8913153E+05
5.7400002E+01, 3.8761141E+05
5.7500000E+01, 3.8627744E+05
5.7600002E+01, 3.8602138E+05
5.7700001E+01, 3.8672225E+05
5.7800003E+01, 3.8496050E+05
5.7900002E+01, 3.8332806E+05
5.8000000E+01, 3.8058250E+05
5.8100002E+01, 3.7857956E+05
5.8200001E+01, 3.7837716E+05
5.8300003E+01, 3.7734316E+05
5.8400002E+01, 3.7390244E+05
5.8500000E+01, 3.7198256E+05
5.8600002E+01, 3.7206662E+05
5.8700001E+01, 3.6989241E+05
5.8800003E+01, 3.6975566E+05
5.8900002E+01, 3.6840078E+05
5.9000000E+01, 3.6693634E+05
5.9100002E+01, 3.6570628E+05
5.9200001E+01, 3.6516322E+05
5.9300003E+01, 3.6639091E+05
5.9400002E+01, 3.6552409E+05
5.9500000E+01, 3.6295150E+05
5.9600002E+01, 3.6151719E+05
5.9700001E+01, 3.5904225E+05
5.9800003E+01, 3.5741203E+05
5.9900002E+01, 3.5511616E+05
6.0000000E+01, 3.5249694E+05
6.0100002E+01, 3.5228406E+05
6.0200001E+01, 3.5272716E+05
6.0300003E+01, 3.5174656E+05
6.0400002E+01, 3.5000375E+05
6.0500000E+01, 3.4902200E+05
6.0600002E+01, 3.4749678E+05
6.0700001E+01, 3.4704662E+05
6.0800003E+01, 3.4611869E+05
6.0900002E+01, 3.4413278E+05
6.1000000E+01, 3.4272044E+05
6.1100002E+01, 3.4147162E+05
6.1200001E+01, 3.3944566E+05
6.1300003E+01, 3.3743603E+05
6.1400002E+01, 3.3543825E+05
6.1500000E+01, 3.3232062E+05
6.1600002E+01, 3.3190638E+05
6.1700001E+01, 3.3024525E+05
6.1800003E+01, 3.2958084E+05
6.1900002E+01, 3.2915431E+05
6.2000000E+01, 3.2880019E+05
6.2100002E+01, 3.2711166E+05
6.2200001E+01, 3.2558206E+05
6.2300003E+01, 3.2541916E+05
6.2400002E+01, 3.2307147E+05
6.2500000E+01, 3.2105081E+05
6.2600002E+01, 3.2038419E+05
6.2700001E+01, 3.1833903E+05
6.2800003E+01, 3.1790725E+05
6.2900002E+01, 3.1613219E+05
6.3000000E+01, 3.1493819E+05
6.3100002E+01, 3.1395650E+05
6.3200001E+01, 3.1370134E+05
6.3300003E+01, 3.1247569E+05
6.3400002E+01, 3.1087022E+05
6.3500000E+01, 3.1015078E+05
6.3600002E+01, 3.0989119E+05
6.3700001E+01, 3.0853578E+05
6.3800003E+01, 3.0624319E+05
6.3900002E+01, 3.0518162E+05
6.4000000E+01, 3.0454572E+05
6.4099998E+01, 3.0424850E+05
6.4200005E+01, 3.0279197E+05
6.4300003E+01, 3.0144678E+05
6.4400002E+01, 3.0056238E+05
6.4500000E+01, 2.9829919E+05
6.4599998E+01, 2.9723575E+05
6.4700005E+01, 2.9635247E+05
6.4800003E+01, 2.9489416E+05
6.4900002E+01, 2.9410481E+05
6.5000000E+01, 2.9302088E+05
6.5099998E+01, 2.9206569E+05
6.5200005E+01, 2.9046259E+05
6.5300003E+01, 2.8913903E+05
6.5400002E+01, 2.8816328E+05
6.5500000E+01, 2.8717581E+05
6.5599998E+01, 2.8589397E+05
6.5700005E+01, 2.8505225E+05
6.5800003E+01, 2.8372150E+05
6.5900002E+01, 2.8361444E+05
6.6000000E+01, 2.8169675E+05
6.6099998E+01, 2.8050503E+05
6.6200005E+01, 2.8111144E+05
6.6300003E+01, 2.7910297E+05
6.6400002E+01, 2.7882112E+05
6.6500000E+01, 2.7752159E+05
6.6599998E+01, 2.7629594E+05
6.6700005E+01, 2.7459538E+05
6.6800003E+01, 2.7394272E+05
6.6900002E+01, 2.7246753E+05
6.7000000E+01, 2.7149562E+05
6.7099998E+01, 2.7056719E+05
6.7200005E+01, 2.7013156E+05
6.7300003E+01, 2.6888416E+05
6.7400002E+01, 2.6759769E+05
6.7500000E+01, 2.6649756E+05
6.7599998E+01, 2.6576216E+05
6.7700005E+01, 2.6466100E+05
6.7800003E+01, 2.6339688E+05
6.7900002E+01, 2.6235319E+05
6.8000000E+01, 2.6133578E+05
6.8099998E+01, 2.6060489E+05
6.8200005E+01, 2.5970109E+05
6.8300003E+01, 2.5882819E+05
6.8400002E+01, 2.5791480E+05
6.8500000E+01, 2.5671291E+05
6.8599998E+01, 2.5556084E+05
6.8700005E+01, 2.5452978E+05
6.8800003E+01, 2.5387758E+05
6.8900002E+01, 2.5276433E+05
6.9000000E+01, 2.5152458E+05
6.9099998E+01, 2.5005767E+05
6.9200005E+01, 2.5061250E+05
6.9300003E+01, 2.4936645E+05
6.9400002E+01, 2.4863788E+05
6.9500000E+01, 2.4821541E+05
6.9599998E+01, 2.4703138E+05
6.9700005E+01, 2.4615858E+05
6.9800003E+01, 2.4519750E+05
6.9900002E+01, 2.4447452E+05
7.0000000E+01, 2.4305258E+05
7.0099998E+01, 2.4162909E+05
7.0200005E+01, 2.4091427E+05
7.0300003E+01, 2.3988383E+05
7.0400002E+01, 2.3834252E+05
7.0500000E+01, 2.3722239E+05
7.0599998E+01, 2.3682014E+05
7.0700005E+01, 2.3556972E+05
7.0800003E+01, 2.3386159E+05
7.0900002E+01, 2.3378623E+05
7.1000000E+01, 2.3314291E+05
7.1099998E+01, 2.3194300E+05
7.1200005E+01, 2.3114453E+05
7.1300003E+01, 2.3025270E+05
7.1400002E+01, 2.2992341E+05
7.1500000E+01, 2.2921658E+05
7.1599998E+01, 2.2756114E+05
7.1700005E+01, 2.2616486E+05
7.1800003E+01, 2.2543731E+05
7.1900002E+01, 2.2586975E+05
7.2000000E+01, 2.2521447E+05
7.2099998E+01, 2.2329738E+05
7.2200005E+01, 2.2339205E+05
7.2300003E+01, 2.2262648E+05
7.2400002E+01, 2.2225517E+05
7.2500000E+01, 2.2055997E+05
7.2599998E+01, 2.1998880E+05
7.2700005E+01, 2.1960091E+05
7.2800003E+01, 2.1875953E+05
7.2900002E+01, 2.1772898E+05
7.3000000E+01, 2.1673175E+05
7.3099998E+01, 2.1555802E+05
7.3200005E+01, 2.1548770E+05
7.3300003E+01, 2.1404148E+05
7.3400002E+01, 2.1304102E+05
7.3500000E+01, 2.1264645E+05
7.3599998E+01, 2.1202011E+05
7.3700005E+01, 2.1184392E+05
7.3800003E+01, 2.1137605E+05
7.3900002E+01, 2.1068534E+05
7.4000000E+01, 2.1009217E+05
7.4099998E+01, 2.0925439E+05
7.4200005E+01, 2.0808208E+05
7.4300003E+01, 2.0700253E+05
7.4400002E+01, 2.0619297E+05
7.4500000E+01, 2.0604120E+05
7.4599998E+01, 2.0544709E+05
7.4700005E+01, 2.0471261E+05
7.4800003E+01, 2.0415638E+05
7.4900002E+01, 2.0304986E+05
7.5000000E+01, 2.0171048E+05
7.5099998E+01, 2.0178498E+05
7.5200005E+01, 2.0149314E+05
7.5300003E+01, 2.0030258E+05
7.5400002E+01, 1.9991091E+05
7.5500000E+01, 1.9964439E+05
7.5599998E+01, 1.9852673E+05
7.5700005E+01, 1.9803597E+05
7.5800003E+01, 1.9753119E+05
7.5900002E+01, 1.9721066E+05
7.6000000E+01, 1.9648434E+05
7.6099998E+01, 1.9538139E+05
7.6200005E+01, 1.9536002E+05
7.6300003E+01, 1.9560289E+05
7.6400002E+01, 1.9462245E+05
7.6500000E+01, 1.9402241E+05
7.6599998E+01, 1.9426589E+05
7.6700005E+01, 1.9405675E+05
7.6800003E+01, 1.9406161E+05
7.6900002E+01, 1.9376825E+05
7.7000000E+01, 1.9316266E+05
7.7099998E+01, 1.9266666E+05
7.7200005E+01, 1.9278614E+05
7.7300003E+01, 1.9304038E+05
7.7400002E+01, 1.9241648E+05
7.7500000E+01, 1.9232695E+05
7.7599998E+01, 1.9274706E+05
7.7700005E+01, 1.9411631E+05
7.7800003E+01, 1.9551597E+05
7.7900002E+01, 1.9719155E+05
7.8000000E+01, 2.0043492E+05
7.8099998E+01, 2.0462517E+05
7.8200005E+01, 2.0973178E+05
7.8300003E+01, 2.1512000E+05
7.8400002E+01, 2.2033261E+05
7.8500000E+01, 2.2540064E+05
7.8599998E+01, 2.2985881E+05
7.8700005E+01, 2.3343753E+05
7.8800003E+01, 2.3526169E+05
7.8900002E+01, 2.3442605E+05
7.9000000E+01, 2.3123725E+05
7.9099998E+01, 2.2725142E+05
7.9200005E+01, 2.2315873E+05
7.9300003E+01, 2.1931642E+05
7.9400002E+01, 2.1751827E+05
7.9500000E+01, 2.1620405E+05
7.9599998E+01, 2.1585367E+05
7.9700005E+01, 2.1643581E+05
7.9800003E+01, 2.1633417E+05
7.9900002E+01, 2.1622816E+05
8.0000000E+01, 2.1554541E+05
8.0099998E+01, 2.1378547E+05
8.0200005E+01, 2.1290747E+05
8.0300003E+01, 2.1222897E+05
8.0400002E+01, 2.1064017E+05
8.0500000E+01, 2.0987603E+05
8.0599998E+01, 2.0862311E+05
8.0700005E+01, 2.0729356E+05
8.0800003E+01, 2.0616386E+05
8.0900002E+01, 2.0439030E+05
8.1000000E+01, 2.0322595E+05
8.1099998E+01, 2.0206088E+05
8.1200005E+01, 2.0021444E+05
8.1300003E+01, 1.9924102E+05
8.1400002E+01, 1.9874600E+05
8.1500000E+01, 1.9739339E+05
8.1599998E+01, 1.9588838E+05
8.1700005E+01, 1.9487052E+05
8.1800003E+01, 1.9417444E+05
8.1900002E+01, 1.9414522E+05
8.2000000E+01, 1.9358011E+05
8.2099998E+01, 1.9306881E+05
8.2200005E+01, 1.9313309E+05
8.2300003E+01, 1.9332441E+05
8.2400002E+01, 1.9322309E+05
8.2500000E+01, 1.9282172E+05
8.2599998E+01, 1.9262861E+05
8.2700005E+01, 1.9269966E+05
8.2800003E+01, 1.9231725E+05
8.2900002E+01, 1.9194894E+05
8.3000000E+01, 1.9056248E+05
8.3099998E+01, 1.8959369E+05
8.3200005E+01, 1.8904077E+05
8.3300003E+01, 1.8894880E+05
8.3400002E+01, 1.8777584E+05
8.3500000E+01, 1.8700353E+05
8.3599998E+01, 1.8654448E+05
8.3700005E+01, 1.8590270E+05
8.3800003E+01, 1.8498778E+05
8.3900002E+01, 1.8469336E+05
8.4000000E+01, 1.8478444E+05
8.4099998E+01, 1.8452261E+05
8.4200005E+01, 1.8406259E+05
8.4300003E+01, 1.8434372E+05
8.4400002E+01, 1.8434016E+05
8.4500000E+01, 1.8405075E+05
8.4599998E+01, 1.8407656E+05
8.4700005E+01, 1.8391970E+05
8.4800003E+01, 1.8325786E+05
8.4900002E+01, 1.8255067E+05
8.5000000E+01, 1.8211148E+05
8.5099998E+01, 1.8137769E+05
8.5200005E+01, 1.8124242E+05
8.5300003E+01, 1.8022258E+05
8.5400002E+01, 1.7943831E+05
8.5500000E+01, 1.7896698E+05
8.5599998E+01, 1.7812519E+05
8.5700005E+01, 1.7648227E+05
8.5800003E+01, 1.7479720E+05
8.5900002E+01, 1.7400603E+05
8.6000000E+01, 1.7314920E+05
8.6099998E+01, 1.7200442E+05
8.6200005E+01, 1.7129531E+05
8.6300003E+01, 1.6989147E+05
8.6400002E+01, 1.6893319E+05
8.6500000E+01, 1.6770183E+05
8.6599998E+01, 1.6627723E+05
8.6700005E+01, 1.6587014E+05
8.6800003E+01, 1.6489212E+05
8.6900002E+01, 1.6351012E+05
8.7000000E+01, 1.6330403E+05
8.7099998E+01, 1.6300384E+05
8.7200005E+01, 1.6253786E+05
8.7300003E+01, 1.6154523E+05
8.7400002E+01, 1.6067217E+05
8.7500000E+01, 1.5937789E+05
8.7599998E+01, 1.5899775E+05
8.7700005E+01, 1.5812561E+05
8.7800003E+01, 1.5711402E+05
8.7900002E+01, 1.5645995E+05
8.8000000E+01, 1.5607134E+05
8.8099998E+01, 1.5564316E+05
8.8200005E+01, 1.5454025E+05
8.8300003E+01, 1.5351786E+05
8.8400002E+01, 1.5315320E+05
8.8500000E+01, 1.5233483E+05
8.8599998E+01, 1.5174317E+05
8.8700005E+01, 1.5081952E+05
8.8800003E+01, 1.5038647E+05
8.8900002E+01, 1.4966173E+05
8.9000000E+01, 1.4891167E+05
8.9099998E+01, 1.4859659E+05
8.9200005E+01, 1.4817017E+05
8.9300003E+01, 1.4757327E+05
8.9400002E+01, 1.4698089E+05
8.9500000E+01, 1.4658192E+05
8.9599998E+01, 1.4667384E+05
8.9700005E+01, 1.4679164E+05
8.9800003E+01, 1.4646325E+05
8.9900002E+01, 1.4651456E+05
9.0000000E+01, 1.4652938E+05
9.0099998E+01, 1.4620845E+05
9.0200005E+01, 1.4619678E+05
9.0300003E+01, 1.4594528E+05
9.0400002E+01, 1.4549548E+05
9.0500000E+01, 1.4501169E+05
9.0599998E+01, 1.4467309E+05
9.0700005E+01, 1.4400989E+05
9.0800003E+01, 1.4365158E+05
9.0900002E+01, 1.4357370E+05
9.1000000E+01, 1.4276223E+05
9.1099998E+01, 1.4219597E+05
9.1200005E+01, 1.4152953E+05
9.1300003E+01, 1.4095311E+05
9.1400002E+01, 1.4061159E+05
9.1500000E+01, 1.4031644E+05
9.1599998E+01, 1.4032400E+05
9.1700005E+01, 1.4016170E+05
9.1800003E+01, 1.3971002E+05
9.1900002E+01, 1.3944009E+05
9.2000000E+01, 1.3905330E+05
9.2099998E+01, 1.3916648E+05
9.2200005E+01, 1.3924945E+05
9.2300003E+01, 1.3903980E+05
9.2400002E+01, 1.3900909E+05
9.2500000E+01, 1.3912928E+05
9.2599998E+01, 1.3927345E+05
9.2700005E+01, 1.3954145E+05
9.2800003E+01, 1.3954859E+05
9.2900002E+01, 1.4012950E+05
9.3000000E+01, 1.4120475E+05
9.3099998E+01, 1.4169223E+05
9.3200005E+01, 1.4191773E+05
9.3300003E+01, 1.4243475E+05
9.3400002E+01, 1.4287834E+05
9.3500000E+01, 1.4335641E+05
9.3599998E+01, 1.4375761E+05
9.3700005E+01, 1.4420067E+05
9.3800003E+01, 1.4476092E+05
9.3900002E+01, 1.4554828E+05
9.4000000E+01, 1.4652548E+05
9.4099998E+01, 1.4763923E+05
9.4200005E+01, 1.4851250E+05
9.4300003E+01, 1.4962700E+05
9.4400002E+01, 1.5081244E+05
9.4500000E+01, 1.5140611E+05
9.4599998E+01, 1.5188467E+05
9.4700005E+01, 1.5253427E+05
9.4800003E+01, 1.5272048E+05
9.4900002E+01, 1.5322034E+05
9.5000000E+01, 1.5321389E+05
9.5099998E+01, 1.5322686E+05
9.5200005E+01, 1.5329956E+05
9.5300003E+01, 1.5389523E+05
9.5400002E+01, 1.5374756E+05
9.5500000E+01, 1.5353862E+05
9.5599998E+01, 1.5334911E+05
9.5700005E+01, 1.5353194E+05
9.5800003E+01, 1.5361462E+05
9.5900002E+01, 1.5339105E+05
9.6000000E+01, 1.5311314E+05
9.6099998E+01, 1.5336206E+05
9.6200005E+01, 1.5299405E+05
9.6300003E+01, 1.5260567E+05
9.6400002E+01, 1.5276448E+05
9.6500000E+01, 1.5301264E+05
9.6599998E+01, 1.5309619E+05
9.6700005E+01, 1.5365842E+05
9.6800003E+01, 1.5392645E+05
9.6900002E+01, 1.5362172E+05
9.7000000E+01, 1.5381022E+05
9.7099998E+01, 1.5350269E+05
9.7200005E+01, 1.5385784E+05
9.7300003E+01, 1.5397623E+05
9.7400002E+01, 1.5353731E+05
9.7500000E+01, 1.5442594E+05
9.7599998E+01, 1.5489298E+05
9.7700005E+01, 1.5469450E+05
9.7800003E+01, 1.5431838E+05
9.7900002E+01, 1.5466402E+05
9.8000000E+01, 1.5447719E+05
9.8099998E+01, 1.5464528E+05
9.8200005E+01, 1.5403767E+05
9.8300003E+01, 1.5435178E+05
9.8400002E+01, 1.5501886E+05
9.8500000E+01, 1.5505920E+05
9.8599998E+01, 1.5566209E+05
9.8700005E+01, 1.5655431E+05
9.8800003E+01, 1.5686145E+05
9.8900002E+01, 1.5720780E+05
9.9000000E+01, 1.5792505E+05
9.9099998E+01, 1.5840600E+05
9.9200005E+01, 1.5838270E+05
9.9300003E+01, 1.5825411E+05
9.9400002E+01, 1.5814159E+05
9.9500000E+01, 1.5815220E+05
9.9599998E+01, 1.5777291E+05
9.9700005E+01, 1.5750833E+05
9.9800003E+01, 1.5700545E+05
9.9900002E+01, 1.5588631E+05
1.0000000E+02, 1.5491467E+05
1.0010000E+02, 1.5404498E+05
1.0020000E+02, 1.5269805E+05
1.0030000E+02, 1.5132812E+05
1.0040000E+02, 1.5011878E+05
1.0050000E+02, 1.4899173E+05
1.0060000E+02, 1.4740117E+05
1.0070000E+02, 1.4622709E+05
1.0080000E+02, 1.4512839E+05
1.0090000E+02, 1.4379123E+05
1.0100000E+02, 1.4269662E+05
1.0110000E+02, 1.4146573E+05
1.0120000E+02, 1.4046603E+05
1.0130000E+02, 1.3935944E+05
1.0140000E+02, 1.3788056E+05
1.0150000E+02, 1.3692811E+05
1.0160000E+02, 1.3612306E+05
1.0170000E+02, 1.3578064E+05
1.0180000E+02, 1.3517316E+05
1.0190000E+02, 1.3457723E+05
1.0200000E+02, 1.3411169E+05
1.0210001E+02, 1.3352934E+05
1.0220000E+02, 1.3234636E+05
1.0230000E+02, 1.3161598E+05
1.0240000E+02, 1.3082907E+05
1.0250000E+02, 1.3038688E+05
1.0260001E+02, 1.2986520E+05
1.0270000E+02, 1.2944216E+05
1.0280000E+02, 1.2870542E+05
1.0290000E+02, 1.2800264E+05
1.0300000E+02, 1.2746987E+05
1.0310001E+02, 1.2682123E+05
1.0320000E+02, 1.2590934E+05
1.0330000E+02, 1.2527962E+05
1.0340000E+02, 1.2505616E+05
1.0350000E+02, 1.2490647E+05
1.0360001E+02, 1.2457028E+05
1.0370000E+02, 1.2397467E+05
1.0380000E+02, 1.2352329E+05
1.0390000E+02, 1.2317214E+05
1.0400000E+02, 1.2241548E+05
1.0410001E+02, 1.2185312E+05
1.0420000E+02, 1.2067591E+05
1.0430000E+02, 1.1974825E+05
1.0440000E+02, 1.1988755E+05
1.0450000E+02, 1.1986756E+05
1.0460001E+02, 1.1948838E+05
1.0470000E+02, 1.1918805E+05
1.0480000E+02, 1.1887740E+05
1.0490000E+02, 1.1807751E+05
1.0500000E+02, 1.1707644E+05
1.0510001E+02, 1.1682687E+05
1.0520000E+02, 1.1617955E+05
1.0530000E+02, 1.1591470E+05
1.0540000E+02, 1.1540898E+05
1.0550000E+02, 1.1464966E+05
1.0560001E+02, 1.1423664E+05
1.0570000E+02, 1.1395725E+05
1.0580000E+02, 1.1349555E+05
1.0590000E+02, 1.1261583E+05
1.0600000E+02, 1.1172092E+05
1.0610001E+02, 1.1136590E+05
1.0620000E+02, 1.1133894E+05
1.0630000E+02, 1.1117035E+05
1.0640000E+02, 1.1066483E+05
1.0650000E+02, 1.1002088E+05
1.0660001E+02, 1.0966341E+05
1.0670000E+02, 1.0911543E+05
1.0680000E+02, 1.0884627E+05
1.0690000E+02, 1.0834708E+05
1.0700000E+02, 1.0817705E+05
1.0710001E+02, 1.0808458E+05
1.0720000E+02, 1.0750579E+05
1.0730000E+02, 1.0766127E+05
1.0740000E+02, 1.0722766E+05
1.0750000E+02, 1.0697334E+05
1.0760001E+02, 1.0670758E+05
1.0770000E+02, 1.0607848E+05
1.0780000E+02, 1.0588112E+05
1.0790000E+02, 1.0597334E+05
1.0800000E+02, 1.0578497E+05
1.0810001E+02, 1.0552721E+05
1.0820000E+02, 1.0521696E+05
1.0830000E+02, 1.0469591E+05
1.0840000E+02, 1.0473670E+05
1.0850000E+02, 1.0440284E+05
1.0860001E+02, 1.0416062E+05
1.0870000E+02, 1.0391527E+05
1.0880000E+02, 1.0393747E+05
1.0890000E+02, 1.0373670E+05
1.0900000E+02, 1.0351155E+05
1.0910001E+02, 1.0318191E+05
1.0920000E+02, 1.0307150E+05
1.0930000E+02, 1.0304497E+05
1.0940000E+02, 1.0297125E+05
1.0950000E+02, 1.0257550E+05
1.0960001E+02, 1.0266225E+05
1.0970000E+02, 1.0233963E+05
1.0980000E+02, 1.0143420E+05
1.0990000E+02, 1.0182216E+05
1.1000000E+02, 1.0227497E+05
1.1010001E+02, 1.0229293E+05
1.1020000E+02, 1.0212388E+05
1.1030000E+02, 1.0172293E+05
1.1040000E+02, 1.0141863E+05
1.1050000E+02, 1.0133288E+05
1.1060001E+02, 1.0142851E+05
1.1070000E+02, 1.0117989E+05
1.1080000E+02, 1.0100198E+05
1.1090000E+02, 1.0083727E+05
1.1100000E+02, 1.0016670E+05
1.1110001E+02, 9.9663055E+04
1.1120000E+02, 9.9380047E+04
1.1130000E+02, 9.9347617E+04
1.1140000E+02, 9.9537992E+04
1.1150000E+02, 9.9231586E+04
1.1160001E+02, 9.8938867E+04
1.1170000E+02, 9.8720828E+04
1.1180000E+02, 9.8319750E+04
1.1190000E+02, 9.8035797E+04
1.1200000E+02, 9.8120961E+04
1.1210001E+02, 9.8034617E+04
1.1220000E+02, 9.7755617E+04
1.1230000E+02, 9.7535766E+04
1.1240000E+02, 9.7439047E+04
1.1250000E+02, 9.7148797E+04
1.1260001E+02, 9.6793047E+04
1.1270000E+02, 9.6406398E+04
1.1280000E+02, 9.5873148E+04
1.1290000E+02, 9.5519828E+04
1.1300000E+02, 9.5494438E+04
1.1310001E+02, 9.5451734E+04
1.1320000E+02, 9.5311328E+04
1.1330000E+02, 9.5030539E+04
1.1340000E+02, 9.4682188E+04
1.1350000E+02, 9.4285773E+04
1.1360001E+02, 9.4352172E+04
1.1370000E+02, 9.4051695E+04
1.1380000E+02, 9.3828156E+04
1.1390000E+02, 9.3580695E+04
1.1400000E+02, 9.3571523E+04
1.1410001E+02, 9.3398758E+04
1.1420000E+02, 9.2980172E+04
1.1430000E+02, 9.2675383E+04
1.1440000E+02, 9.2659180E+04
1.1450000E+02, 9.2344375E+04
1.1460001E+02, 9.2047828E+04
1.1470000E+02, 9.2116656E+04
1.1480000E+02, 9.1796633E+04
1.1490000E+02, 9.1659383E+04
1.1500000E+02, 9.1508562E+04
1.1510001E+02, 9.1506406E+04
1.1520000E+02, 9.1592789E+04
1.1530000E+02, 9.1423391E+04
1.1540000E+02, 9.1255445E+04
1.1550000E+02, 9.1020078E+04
1.1560001E+02, 9.0706492E+04
1.1570000E+02, 9.0639516E+04
1.1580000E+02, 9.0629156E+04
1.1590000E+02, 9.0303750E+04
1.1600000E+02, 9.0113383E+04
1.1610001E+02, 8.9637156E+04
1.1620000E+02, 8.9610430E+04
1.1630000E+02, 8.9524477E+04
1.1640000E+02, 8.9428391E+04
1.1650000E+02, 8.9263945E+04
1.1660001E+02, 8.9104789E+04
1.1670000E+02, 8.9152312E+04
1.1680000E+02, 8.9204828E+04
1.1690000E+02, 8.9189617E+04
1.1700000E+02, 8.8984781E+04
1.1710001E+02, 8.8765469E+04
1.1720000E+02, 8.8602211E+04
1.1730000E+02, 8.8516750E+04
1.1740000E+02, 8.8418883E+04
1.1750000E+02, 8.8362094E+04
1.1760001E+02, 8.8097820E+04
1.1770000E+02, 8.7921820E+04
1.1780000E+02, 8.7602773E+04
1.1790000E+02, 8.7437742E+04
1.1800000E+02, 8.7420258E+04
1.1810001E+02, 8.7535883E+04
1.1820000E+02, 8.7643164E+04
1.1830000E+02, 8.7411445E+04
1.1840000E+02, 8.7030688E+04
1.1850000E+02, 8.6826148E+04
1.1860001E+02, 8.6725531E+04
1.1870000E+02, 8.6682375E+04
1.1880000E+02, 8.6749297E+04
1.1890000E+02, 8.6766562E+04
1.1900000E+02, 8.6913266E+04
1.1910001E+02, 8.7027203E+04
1.1920000E+02, 8.7033156E+04
1.1930000E+02, 8.7097312E+04
1.1940000E+02, 8.7098789E+04
1.1950000E+02, 8.6983445E+04
1.1960001E+02, 8.6763688E+04
1.1970000E+02, 8.6770031E+04
1.1980000E+02, 8.6568180E+04
1.1990000E+02, 8.6373641E+04
1.2000000E+02, 8.6434414E+04
1.2010001E+02, 8.6514508E+04
1.2020000E+02, 8.6483492E+04
1.2030000E+02, 8.6433039E+04
1.2040000E+02, 8.6228047E+04
1.2050000E+02, 8.6124750E+04
1.2060001E+02, 8.6160156E+04
1.2070000E+02, 8.5867984E+04
1.2080000E+02, 8.5932562E+04
1.2090000E+02, 8.5944906E+04
1.2100000E+02, 8.6004742E+04
1.2110001E+02, 8.6001453E+04
1.2120000E+02, 8.5766125E+04
1.2130000E+02, 8.5633594E+04
1.2140000E+02, 8.5555203E+04
1.2150000E+02, 8.5408562E+04
1.2160001E+02, 8.5437320E+04
1.2170000E+02, 8.5358695E+04
1.2180000E+02, 8.5296641E+04
1.2190000E+02, 8.5324039E+04
1.2200000E+02, 8.5061305E+04
1.2210001E+02, 8.4898047E+04
1.2220000E+02, 8.4683562E+04
1.2230000E+02, 8.4905469E+04
1.2240000E+02, 8.4681258E+04
1.2250000E+02, 8.4678258E+04
1.2260001E+02, 8.4469312E+04
1.2270000E+02, 8.4297648E+04
1.2280000E+02, 8.4239188E+04
1.2290000E+02, 8.4208312E+04
1.2300000E+02, 8.4234695E+04
1.2310001E+02, 8.4324023E+04
1.2320000E+02, 8.4321578E+04
1.2330000E+02, 8.4389984E+04
1.2340000E+02, 8.4241859E+04
1.2350000E+02, 8.3690250E+04
1.2360001E+02, 8.3884695E+04
1.2370000E+02, 8.4089008E+04
1.2380000E+02, 8.4040336E+04
1.2390000E+02, 8.4131148E+04
1.2400000E+02, 8.4058289E+04
1.2410001E+02, 8.4159305E+04
1.2420000E+02, 8.4228188E+04
1.2430000E+02, 8.4260211E+04
1.2440000E+02, 8.4195227E+04
1.2450000E+02, 8.4333344E+04
1.2460001E+02, 8.4532297E+04
1.2470000E+02, 8.4623109E+04
1.2480000E+02, 8.4646266E+04
1.2490000E+02, 8.4668172E+04
1.2500000E+02, 8.4711094E+04
1.2510001E+02, 8.4509086E+04
1.2520000E+02, 8.4837570E+04
1.2530000E+02, 8.4973594E+04
1.2540000E+02, 8.4789664E+04
1.2550000E+02, 8.4907883E+04
1.2560001E+02, 8.4917078E+04
1.2570000E+02, 8.4677672E+04
1.2580000E+02, 8.4472922E+04
1.2590000E+02, 8.4240727E+04
1.2600000E+02, 8.3998711E+04
1.2610001E+02, 8.3847953E+04
1.2620000E+02, 8.3634594E+04
1.2630000E+02, 8.3273172E+04
1.2640000E+02, 8.2755859E+04
1.2650000E+02, 8.2584883E+04
1.2660001E+02, 8.2232383E+04
1.2670000E+02, 8.1901047E+04
1.2680000E+02, 8.1751742E+04
1.2690000E+02, 8.1443227E+04
1.2700000E+02, 8.1088914E+04
1.2710001E+02, 8.0943492E+04
1.2720000E+02, 8.0768398E+04
1.2730000E+02, 8.0416328E+04
1.2740000E+02, 8.0060742E+04
1.2750000E+02, 7.9886711E+04
1.2760001E+02, 7.9825547E+04
1.2770000E+02, 7.9767102E+04
1.2780000E+02, 7.9378164E+04
1.2790000E+02, 7.9194414E+04
1.2800000E+02, 7.8965453E+04
1.2810001E+02, 7.8707164E+04
1.2820000E+02, 7.8575906E+04
1.2830000E+02, 7.8254516E+04
1.2840001E+02, 7.8036133E+04
1.2850000E+02, 7.8045555E+04
1.2860001E+02, 7.7947266E+04
1.2870000E+02, 7.7894672E+04
1.2880000E+02, 7.7671672E+04
1.2890001E+02, 7.7427242E+04
1.2900000E+02, 7.7233516E+04
1.2910001E+02, 7.7057750E+04
1.2920000E+02, 7.7046914E+04
1.2930000E+02, 7.6981383E+04
1.2940001E+02, 7.6863844E+04
1.2950000E+02, 7.6660148E+04
1.2960001E+02, 7.6555070E+04
1.2970000E+02, 7.6450297E+04
1.2980000E+02, 7.6380773E+04
1.2990001E+02, 7.6167336E+04
1.3000000E+02, 7.6025117E+04
1.3010001E+02, 7.5891289E+04
1.3020000E+02, 7.5804453E+04
1.3030000E+02, 7.5463727E+04
1.3040001E+02, 7.5340422E+04
1.3050000E+02, 7.5157703E+04
1.3060001E+02, 7.4928086E+04
1.3070000E+02, 7.4708688E+04
1.3080000E+02, 7.4565891E+04
1.3090001E+02, 7.4418281E+04
1.3100000E+02, 7.4412617E+04
1.3110001E+02, 7.4227359E+04
1.3120000E+02, 7.4077977E+04
1.3130000E+02, 7.3811297E+04
1.3140001E+02, 7.3540328E+04
1.3150000E+02, 7.3165531E+04
1.3160001E+02, 7.2915523E+04
1.3170000E+02, 7.2829906E+04
1.3180000E+02, 7.2550805E+04
1.3190001E+02, 7.2337523E+04
1.3200000E+02, 7.2232711E+04
1.3210001E+02, 7.1864422E+04
1.3220000E+02, 7.1430547E+04
1.3230000E+02, 7.1032531E+04
1.3240001E+02, 7.0849852E+04
1.3250000E+02, 7.0715406E+04
1.3260001E+02, 7.0465594E+04
1.3270000E+02, 7.0341969E+04
1.3280000E+02, 7.0218219E+04
1.3290001E+02, 7.0080883E+04
1.3300000E+02, 6.9883008E+04
1.3310001E+02, 6.9683773E+04
1.3320000E+02, 6.9629656E+04
1.3330000E+02, 6.9559789E+04
1.3340001E+02, 6.9514789E+04
1.3350000E+02, 6.9416484E+04
1.3360001E+02, 6.9227172E+04
1.3370000E+02, 6.9106250E+04
1.3380000E+02, 6.8950555E+04
1.3390001E+02, 6.8893320E+04
1.3400000E+02, 6.8681367E+04
1.3410001E+02, 6.8554789E+04
1.3420000E+02, 6.8538117E+04
1.3430000E+02, 6.8407047E+04
1.3440001E+02, 6.8189898E+04
1.3450000E+02, 6.7954836E+04
1.3460001E+02, 6.7682250E+04
1.3470000E+02, 6.7354961E+04
1.3480000E+02, 6.7346984E+04
1.3490001E+02, 6.7417539E+04
1.3500000E+02, 6.7340602E+04
1.3510001E+02, 6.7226406E+04
1.3520000E+02, 6.7114562E+04
1.3530000E+02, 6.6948086E+04
1.3540001E+02, 6.6837133E+04
1.3550000E+02, 6.6757750E+04
1.3560001E+02, 6.6767336E+04
1.3570000E+02, 6.6561898E+04
1.3580000E+02, 6.6408578E+04
1.3590001E+02, 6.6378531E+04
1.3600000E+02, 6.6088453E+04
1.3610001E+02, 6.5862758E+04
1.3620000E+02, 6.5748617E+04
1.3630000E+02, 6.5630938E+04
1.3640001E+02, 6.5684008E+04
1.3650000E+02, 6.5626273E+04
1.3660001E+02, 6.5483391E+04
1.3670000E+02, 6.5516422E+04
1.3680000E+02, 6.5510305E+04
1.3690001E+02, 6.5563461E+04
1.3700000E+02, 6.5407270E+04
1.3710001E+02, 6.5266781E+04
1.3720000E+02, 6.5105820E+04
1.3730000E+02, 6.5011996E+04
1.3740001E+02, 6.5068027E+04
1.3750000E+02, 6.5064449E+04
1.3760001E+02, 6.5018367E+04
1.3770000E+02, 6.4892742E+04
1.3780000E+02, 6.4683820E+04
1.3790001E+02, 6.4513582E+04
1.3800000E+02, 6.4336609E+04
1.3810001E+02, 6.4156512E+04
1.3820000E+02, 6.4087426E+04
1.3830000E+02, 6.3874777E+04
1.3840001E+02, 6.3573164E+04
1.3850000E+02, 6.3446406E+04
1.3860001E+02, 6.3482770E+04
1.3870000E+02, 6.3571594E+04
1.3880000E+02, 6.3474301E+04
1.3890001E+02, 6.3292410E+04
1.3900000E+02, 6.3108734E+04
1.3910001E+02, 6.3120949E+04
1.3920000E+02, 6.3119281E+04
1.3930000E+02, 6.2911492E+04
1.3940001E+02, 6.2754477E+04
1.3950000E+02, 6.2665180E+04
1.3960001E+02, 6.2588000E+04
1.3970000E+02, 6.2601512E+04
1.3980000E+02, 6.2496574E+04
1.3990001E+02, 6.2320770E+04
1.4000000E+02, 6.2285844E+04
1.4010001E+02, 6.2246305E+04
1.4020000E+02, 6.2069129E+04
1.4030000E+02, 6.1897887E+04
1.4040001E+02, 6.1867609E+04
1.4050000E+02, 6.1832750E+04
1.4060001E+02, 6.1737125E+04
1.4070000E+02, 6.1643422E+04
1.4080000E+02, 6.1421992E+04
1.4090001E+02, 6.1224047E+04
1.4100000E+02, 6.1066449E+04
1.4110001E+02, 6.0935383E+04
1.4120000E+02, 6.0731621E+04
1.4130000E+02, 6.0500926E+04
1.4140001E+02, 6.0331523E+04
1.4150000E+02, 6.0197086E+04
1.4160001E+02, 6.0116215E+04
1.4170000E+02, 6.0095504E+04
1.4180000E+02, 6.0066293E+04
1.4190001E+02, 6.0033691E+04
1.4200000E+02, 5.9958828E+04
1.4210001E+02, 5.9926258E+04
1.4220000E+02, 5.9845754E+04
1.4230000E+02, 5.9687027E+04
1.4240001E+02, 5.9496742E+04
1.4250000E+02, 5.9233211E+04
1.4260001E+02, 5.9019629E+04
1.4270000E+02, 5.8946285E+04
1.4280000E+02, 5.8813770E+04
1.4290001E+02, 5.8728164E+04
1.4300000E+02, 5.8634637E+04
1.4310001E+02, 5.8567941E+04
1.4320000E+02, 5.8636293E+04
1.4330000E+02, 5.8430984E+04
1.4340001E+02, 5.8271555E+04
1.4350000E+02, 5.8260328E+04
1.4360001E+02, 5.8200539E+04
1.4370000E+02, 5.8077031E+04
1.4380000E+02, 5.7812633E+04
1.4390001E+02, 5.7594441E+04
1.4400000E+02, 5.7679430E+04
1.4410001E+02, 5.7661652E+04
1.4420000E+02, 5.7601152E+04
1.4430000E+02, 5.7524805E+04
1.4440001E+02, 5.7518359E+04
1.4450000E+02, 5.7453473E+04
1.4460001E+02, 5.7368973E+04
1.4470000E+02, 5.7348156E+04
1.4480000E+02, 5.7244391E+04
1.4490001E+02, 5.7218934E+04
1.4500000E+02, 5.7143684E+04
1.4510001E+02, 5.7148344E+04
1.4520000E+02, 5.7006852E+04
1.4530000E+02, 5.6879348E+04
1.4540001E+02, 5.6804402E+04
1.4550000E+02, 5.6671496E+04
1.4560001E+02, 5.6414395E+04
1.4570000E+02, 5.6334160E+04
1.4580000E+02, 5.6274918E+04
1.4590001E+02, 5.6266750E+04
1.4600000E+02, 5.6233008E+04
1.4610001E+02, 5.6236762E+04
1.4620000E+02, 5.6286086E+04
1.4630000E+02, 5.6366879E+04
1.4640001E+02, 5.6444398E+04
1.4650000E+02, 5.6520355E+04
1.4660001E+02, 5.6462383E+04
1.4670000E+02, 5.6545156E+04
#ENDOFDATA   : End Of Data and File
