#FORMAT	     : EMSA/MAS Spectral Data File
#VERSION     : 1.0
#TITLE       : BN_LowLoss_M__Cheynet_90
#DATE        : 
#TIME        : 
#OWNER       : eelsdatabase.net
#NPOINTS     : 1002
#NCOLUMNS    : 1
#XUNITS      : eV
#YUNITS      : 
#DATATYPE    : XY
#XPERCHAN    : 0.0976
#OFFSET      : -7.6128
#SIGNALTYPE  : ELS
#SPECTRUM    : Spectral Data Starts Here
-7.6128, -4.9997
-7.5152, -9.0000
-7.4176, -5.9997
-7.3200, 0.99975
-7.2224, 3.9997
-7.1248, 2.9997
-7.0272, 4.9997
-6.9296, 2.9997
-6.8320, -0.99975
-6.7344, 9.0000
-6.6368, 5.9997
-6.5392, 10.999
-6.4416, 0.0000
-6.3440, 0.99975
-6.2464, 5.9997
-6.1488, -2.9997
-6.0512, 9.9997
-5.9536, 12.000
-5.8560, 0.99975
-5.7584, 34.000
-5.6608, 14.000
-5.5632, 17.000
-5.4656, 6.9997
-5.3680, 6.9997
-5.2704, 7.9997
-5.1728, 14.999
-5.0752, 24.000
-4.9776, 9.9997
-4.8800, 21.999
-4.7824, 13.000
-4.6848, 26.000
-4.5872, 19.999
-4.4896, 19.999
-4.3920, 21.999
-4.2944, 14.999
-4.1968, 17.000
-4.0992, 28.000
-4.0016, 24.000
-3.9040, 26.000
-3.8064, 54.999
-3.7088, 39.999
-3.6112, 41.000
-3.5136, 49.999
-3.4160, 59.999
-3.3184, 69.999
-3.2208, 68.000
-3.1232, 101.99
-3.0256, 136.99
-2.9280, 126.99
-2.8304, 114.00
-2.7328, 134.99
-2.6352, 146.99
-2.5376, 162.99
-2.4400, 202.00
-2.3424, 200.99
-2.2448, 288.00
-2.1472, 340.00
-2.0496, 405.00
-1.9520, 499.00
-1.8544, 671.00
-1.7568, 1010.0
-1.6592, 1582.0
-1.5616, 3435.0
-1.4640, 6711.0
-1.3664, 12492
-1.2688, 15811
-1.1712, 24602
-1.0736, 41971
-0.97600, 68402
-0.87840, 1.0502e+05
-0.78080, 1.5438e+05
-0.68320, 1.9706e+05
-0.58560, 2.6371e+05
-0.48800, 3.3555e+05
-0.39040, 3.9678e+05
-0.29280, 4.3907e+05
-0.19520, 4.5940e+05
-0.097600, 4.7838e+05
0.0000, 4.7754e+05
0.097600, 4.4961e+05
0.19520, 4.2048e+05
0.29280, 4.2181e+05
0.39040, 3.8459e+05
0.48800, 3.1984e+05
0.58560, 2.5111e+05
0.68320, 1.8263e+05
0.78080, 1.3133e+05
0.87840, 1.1723e+05
0.97600, 86748
1.0736, 61749
1.1712, 43465
1.2688, 33029
1.3664, 22166
1.4640, 15788
1.5616, 10179
1.6592, 7141.0
1.7568, 6493.0
1.8544, 5444.0
1.9520, 4103.0
2.0496, 3410.0
2.1472, 2817.0
2.2448, 2656.0
2.3424, 2446.0
2.4400, 2286.0
2.5376, 2198.0
2.6352, 2104.0
2.7328, 1978.0
2.8304, 1993.0
2.9280, 1984.0
3.0256, 1868.0
3.1232, 1832.0
3.2208, 1872.0
3.3184, 1950.0
3.4160, 1831.0
3.5136, 1844.0
3.6112, 1862.0
3.7088, 1822.0
3.8064, 1712.0
3.9040, 1851.0
4.0016, 1725.0
4.0992, 1812.0
4.1968, 1786.0
4.2944, 1800.0
4.3920, 1878.0
4.4896, 1818.0
4.5872, 1726.0
4.6848, 1785.0
4.7824, 1802.0
4.8800, 1773.0
4.9776, 1764.0
5.0752, 1807.0
5.1728, 1853.0
5.2704, 1808.0
5.3680, 1973.0
5.4656, 2073.0
5.5632, 2234.0
5.6608, 2474.0
5.7584, 2633.0
5.8560, 2803.0
5.9536, 3045.0
6.0512, 3213.0
6.1488, 3530.0
6.2464, 3564.0
6.3440, 3825.0
6.4416, 4241.0
6.5392, 4467.0
6.6368, 4619.0
6.7344, 4845.0
6.8320, 4926.0
6.9296, 5410.0
7.0272, 5553.0
7.1248, 5790.0
7.2224, 6133.0
7.3200, 6338.0
7.4176, 6647.0
7.5152, 6654.0
7.6128, 7013.0
7.7104, 7204.0
7.8080, 7176.0
7.9056, 7397.0
8.0032, 7416.0
8.1008, 7299.0
8.1984, 7435.0
8.2960, 7370.0
8.3936, 7285.0
8.4912, 7126.0
8.5888, 6993.0
8.6864, 6820.0
8.7840, 6699.0
8.8816, 6686.0
8.9792, 6336.0
9.0768, 6188.0
9.1744, 5864.0
9.2720, 5648.0
9.3696, 5404.0
9.4672, 5515.0
9.5648, 5237.0
9.6624, 5141.0
9.7600, 5001.0
9.8576, 4863.0
9.9552, 4737.0
10.052, 4690.0
10.150, 4555.0
10.248, 4382.0
10.345, 4413.0
10.443, 4400.0
10.540, 4351.0
10.638, 4309.0
10.736, 4238.0
10.833, 4116.0
10.931, 4014.0
11.028, 4089.0
11.126, 3863.0
11.224, 3936.0
11.321, 3972.0
11.419, 3874.0
11.516, 3779.0
11.614, 3755.0
11.712, 3736.0
11.809, 3661.0
11.907, 3714.0
12.004, 3662.0
12.102, 3679.0
12.200, 3688.0
12.297, 3580.0
12.395, 3557.0
12.492, 3634.0
12.590, 3499.0
12.688, 3439.0
12.785, 3546.0
12.883, 3600.0
12.980, 3469.0
13.078, 3486.0
13.176, 3416.0
13.273, 3512.0
13.371, 3497.0
13.468, 3573.0
13.566, 3466.0
13.664, 3606.0
13.761, 3563.0
13.859, 3530.0
13.956, 3713.0
14.054, 3722.0
14.152, 3728.0
14.249, 3898.0
14.347, 3733.0
14.444, 3899.0
14.542, 3949.0
14.640, 4009.0
14.737, 4099.0
14.835, 4272.0
14.932, 4258.0
15.030, 4425.0
15.128, 4471.0
15.225, 4715.0
15.323, 4678.0
15.420, 4822.0
15.518, 4965.0
15.616, 5143.0
15.713, 5149.0
15.811, 5297.0
15.908, 5317.0
16.006, 5649.0
16.104, 5707.0
16.201, 5758.0
16.299, 6130.0
16.396, 6132.0
16.494, 6264.0
16.592, 6370.0
16.689, 6620.0
16.787, 6971.0
16.884, 6892.0
16.982, 7208.0
17.080, 7266.0
17.177, 7282.0
17.275, 7842.0
17.372, 7689.0
17.470, 7929.0
17.568, 8148.0
17.665, 8294.0
17.763, 8421.0
17.860, 8561.0
17.958, 8776.0
18.056, 8930.0
18.153, 9158.0
18.251, 9284.0
18.348, 9450.0
18.446, 9694.0
18.544, 9819.0
18.641, 9900.0
18.739, 10296
18.836, 10464
18.934, 10555
19.032, 10673
19.129, 10535
19.227, 10812
19.324, 10927
19.422, 10981
19.520, 11171
19.617, 11207
19.715, 11314
19.812, 11427
19.910, 11683
20.008, 11998
20.105, 12115
20.203, 12244
20.300, 12308
20.398, 12513
20.496, 12548
20.593, 12474
20.691, 12883
20.788, 13113
20.886, 13225
20.984, 13623
21.081, 13642
21.179, 13698
21.276, 13793
21.374, 13893
21.472, 13879
21.569, 14594
21.667, 14493
21.764, 14565
21.862, 15002
21.960, 15167
22.057, 15367
22.155, 15806
22.252, 15700
22.350, 15943
22.448, 16509
22.545, 16299
22.643, 16788
22.740, 16757
22.838, 17212
22.936, 17586
23.033, 17978
23.131, 18475
23.228, 18428
23.326, 18600
23.424, 18482
23.521, 19095
23.619, 19193
23.716, 19424
23.814, 19495
23.912, 19711
24.009, 19601
24.107, 19606
24.204, 20074
24.302, 20275
24.400, 20300
24.497, 20412
24.595, 20346
24.692, 20656
24.790, 20449
24.888, 20688
24.985, 20896
25.083, 20746
25.180, 21148
25.278, 20904
25.376, 21102
25.473, 20951
25.571, 20980
25.668, 20902
25.766, 20817
25.864, 20963
25.961, 20223
26.059, 20734
26.156, 20762
26.254, 20593
26.352, 20431
26.449, 20361
26.547, 20207
26.644, 20088
26.742, 19791
26.840, 19889
26.937, 19820
27.035, 19168
27.132, 18977
27.230, 18776
27.328, 18683
27.425, 18470
27.523, 18258
27.620, 18545
27.718, 18158
27.816, 17983
27.913, 17973
28.011, 17687
28.108, 17719
28.206, 17513
28.304, 17127
28.401, 16950
28.499, 16521
28.596, 16382
28.694, 16077
28.792, 16098
28.889, 15861
28.987, 15599
29.084, 15431
29.182, 15351
29.280, 15163
29.377, 14911
29.475, 14695
29.572, 14403
29.670, 14382
29.768, 14240
29.865, 13931
29.963, 13952
30.060, 13962
30.158, 13747
30.256, 13662
30.353, 13280
30.451, 13143
30.548, 12819
30.646, 12883
30.744, 12917
30.841, 12524
30.939, 12439
31.036, 12213
31.134, 12188
31.232, 12060
31.329, 11948
31.427, 11789
31.524, 11549
31.622, 11605
31.720, 11653
31.817, 11380
31.915, 11455
32.012, 11232
32.110, 10790
32.208, 10759
32.305, 10664
32.403, 10860
32.500, 10664
32.598, 10477
32.696, 10466
32.793, 10288
32.891, 10148
32.988, 9905.0
33.086, 10212
33.184, 10188
33.281, 9649.0
33.379, 9925.0
33.476, 9444.0
33.574, 9646.0
33.672, 9416.0
33.769, 9575.0
33.867, 9343.0
33.964, 9729.0
34.062, 9251.0
34.160, 9402.0
34.257, 9240.0
34.355, 9039.0
34.452, 9120.0
34.550, 8957.0
34.648, 9128.0
34.745, 9171.0
34.843, 9072.0
34.940, 8950.0
35.038, 8808.0
35.136, 8855.0
35.233, 8843.0
35.331, 8574.0
35.428, 8669.0
35.526, 8744.0
35.624, 8575.0
35.721, 8441.0
35.819, 8302.0
35.916, 8540.0
36.014, 8469.0
36.112, 8566.0
36.209, 8280.0
36.307, 8462.0
36.404, 8209.0
36.502, 8204.0
36.600, 8159.0
36.697, 8168.0
36.795, 8253.0
36.892, 7983.0
36.990, 8010.0
37.088, 8049.0
37.185, 8047.0
37.283, 7970.0
37.380, 7736.0
37.478, 7739.0
37.576, 7829.0
37.673, 7734.0
37.771, 7726.0
37.868, 7704.0
37.966, 7789.0
38.064, 7495.0
38.161, 7701.0
38.259, 7483.0
38.356, 7583.0
38.454, 7460.0
38.552, 7469.0
38.649, 7373.0
38.747, 7159.0
38.844, 7005.0
38.942, 7182.0
39.040, 7298.0
39.137, 7159.0
39.235, 7211.0
39.332, 7078.0
39.430, 7076.0
39.528, 7092.0
39.625, 6976.0
39.723, 7044.0
39.820, 6934.0
39.918, 6859.0
40.016, 6819.0
40.113, 6683.0
40.211, 6765.0
40.308, 6617.0
40.406, 6493.0
40.504, 6663.0
40.601, 6435.0
40.699, 6451.0
40.796, 6457.0
40.894, 6226.0
40.992, 6218.0
41.089, 6068.0
41.187, 6221.0
41.284, 6251.0
41.382, 6131.0
41.480, 6040.0
41.577, 5992.0
41.675, 5977.0
41.772, 5912.0
41.870, 6058.0
41.968, 5947.0
42.065, 5895.0
42.163, 5673.0
42.260, 5752.0
42.358, 5792.0
42.456, 5733.0
42.553, 5826.0
42.651, 5641.0
42.748, 5689.0
42.846, 5695.0
42.944, 5738.0
43.041, 5748.0
43.139, 5581.0
43.236, 5561.0
43.334, 5644.0
43.432, 5682.0
43.529, 5654.0
43.627, 5632.0
43.724, 5656.0
43.822, 5464.0
43.920, 5700.0
44.017, 5599.0
44.115, 5657.0
44.212, 5606.0
44.310, 5530.0
44.408, 5620.0
44.505, 5608.0
44.603, 5447.0
44.700, 5586.0
44.798, 5381.0
44.896, 5626.0
44.993, 5575.0
45.091, 5594.0
45.188, 5566.0
45.286, 5708.0
45.384, 5664.0
45.481, 5720.0
45.579, 5535.0
45.676, 5560.0
45.774, 5554.0
45.872, 5545.0
45.969, 5442.0
46.067, 5550.0
46.164, 5506.0
46.262, 5490.0
46.360, 5729.0
46.457, 5429.0
46.555, 5673.0
46.652, 5667.0
46.750, 5662.0
46.848, 5602.0
46.945, 5579.0
47.043, 5621.0
47.140, 5603.0
47.238, 5559.0
47.336, 5659.0
47.433, 5624.0
47.531, 5691.0
47.628, 5457.0
47.726, 5713.0
47.824, 5637.0
47.921, 5594.0
48.019, 5711.0
48.116, 5667.0
48.214, 5485.0
48.312, 5538.0
48.409, 5724.0
48.507, 5514.0
48.604, 5519.0
48.702, 5628.0
48.800, 5574.0
48.897, 5696.0
48.995, 5705.0
49.092, 5470.0
49.190, 5575.0
49.288, 5413.0
49.385, 5388.0
49.483, 5605.0
49.580, 5478.0
49.678, 5566.0
49.776, 5418.0
49.873, 5509.0
49.971, 5575.0
50.068, 5493.0
50.166, 5460.0
50.264, 5632.0
50.361, 5486.0
50.459, 5420.0
50.556, 5482.0
50.654, 5314.0
50.752, 5528.0
50.849, 5504.0
50.947, 5376.0
51.044, 5376.0
51.142, 5356.0
51.240, 5385.0
51.337, 5228.0
51.435, 5497.0
51.532, 5355.0
51.630, 5337.0
51.728, 5286.0
51.825, 5305.0
51.923, 5227.0
52.020, 5247.0
52.118, 5330.0
52.216, 5081.0
52.313, 5280.0
52.411, 5106.0
52.508, 5172.0
52.606, 5194.0
52.704, 5136.0
52.801, 5180.0
52.899, 5076.0
52.996, 5171.0
53.094, 5154.0
53.192, 5201.0
53.289, 5094.0
53.387, 5129.0
53.484, 5103.0
53.582, 5011.0
53.680, 5068.0
53.777, 4947.0
53.875, 5104.0
53.972, 4955.0
54.070, 4951.0
54.168, 4928.0
54.265, 4921.0
54.363, 4914.0
54.460, 4938.0
54.558, 4899.0
54.656, 4715.0
54.753, 4775.0
54.851, 4795.0
54.948, 4894.0
55.046, 4863.0
55.144, 4754.0
55.241, 4929.0
55.339, 4673.0
55.436, 4777.0
55.534, 4661.0
55.632, 4664.0
55.729, 4557.0
55.827, 4493.0
55.924, 4636.0
56.022, 4519.0
56.120, 4546.0
56.217, 4567.0
56.315, 4550.0
56.412, 4578.0
56.510, 4458.0
56.608, 4375.0
56.705, 4390.0
56.803, 4390.0
56.900, 4349.0
56.998, 4320.0
57.096, 4371.0
57.193, 4312.0
57.291, 4395.0
57.388, 4309.0
57.486, 4336.0
57.584, 4312.0
57.681, 4259.0
57.779, 4215.0
57.876, 4117.0
57.974, 4288.0
58.072, 4198.0
58.169, 4219.0
58.267, 4101.0
58.364, 4326.0
58.462, 4072.0
58.560, 4120.0
58.657, 4146.0
58.755, 4157.0
58.852, 4110.0
58.950, 4101.0
59.048, 4002.0
59.145, 3956.0
59.243, 3971.0
59.340, 3964.0
59.438, 3973.0
59.536, 3973.0
59.633, 3917.0
59.731, 4023.0
59.828, 3944.0
59.926, 3868.0
60.024, 3956.0
60.121, 3849.0
60.219, 3863.0
60.316, 3851.0
60.414, 3873.0
60.512, 3763.0
60.609, 3915.0
60.707, 3861.0
60.804, 3782.0
60.902, 3646.0
61.000, 3822.0
61.097, 3758.0
61.195, 3796.0
61.292, 3670.0
61.390, 3662.0
61.488, 3652.0
61.585, 3604.0
61.683, 3661.0
61.780, 3559.0
61.878, 3552.0
61.976, 3591.0
62.073, 3584.0
62.171, 3610.0
62.268, 3568.0
62.366, 3353.0
62.464, 3445.0
62.561, 3426.0
62.659, 3461.0
62.756, 3411.0
62.854, 3295.0
62.952, 3458.0
63.049, 3301.0
63.147, 3348.0
63.244, 3342.0
63.342, 3119.0
63.440, 3361.0
63.537, 3359.0
63.635, 3236.0
63.732, 3272.0
63.830, 3238.0
63.928, 3360.0
64.025, 3265.0
64.123, 3329.0
64.220, 3333.0
64.318, 3154.0
64.416, 3220.0
64.513, 3311.0
64.611, 3285.0
64.708, 3252.0
64.806, 3302.0
64.904, 3153.0
65.001, 3044.0
65.099, 3097.0
65.196, 3027.0
65.294, 3090.0
65.392, 3031.0
65.489, 3033.0
65.587, 3027.0
65.684, 3079.0
65.782, 3060.0
65.880, 2957.0
65.977, 2889.0
66.075, 2973.0
66.172, 2849.0
66.270, 2927.0
66.368, 2925.0
66.465, 2989.0
66.563, 3019.0
66.660, 2883.0
66.758, 2938.0
66.856, 2835.0
66.953, 2829.0
67.051, 2820.0
67.148, 2922.0
67.246, 2812.0
67.344, 2821.0
67.441, 2825.0
67.539, 2791.0
67.636, 2802.0
67.734, 2845.0
67.832, 2738.0
67.929, 2781.0
68.027, 2822.0
68.124, 2727.0
68.222, 2635.0
68.320, 2713.0
68.417, 2826.0
68.515, 2733.0
68.612, 2568.0
68.710, 2645.0
68.808, 2667.0
68.905, 2663.0
69.003, 2682.0
69.100, 2572.0
69.198, 2639.0
69.296, 2617.0
69.393, 2614.0
69.491, 2566.0
69.588, 2564.0
69.686, 2571.0
69.784, 2572.0
69.881, 2632.0
69.979, 2545.0
70.076, 2549.0
70.174, 2573.0
70.272, 2475.0
70.369, 2567.0
70.467, 2574.0
70.564, 2569.0
70.662, 2513.0
70.760, 2499.0
70.857, 2472.0
70.955, 2508.0
71.052, 2502.0
71.150, 2574.0
71.248, 2437.0
71.345, 2406.0
71.443, 2392.0
71.540, 2379.0
71.638, 2359.0
71.736, 2375.0
71.833, 2401.0
71.931, 2376.0
72.028, 2298.0
72.126, 2350.0
72.224, 2345.0
72.321, 2347.0
72.419, 2303.0
72.516, 2322.0
72.614, 2330.0
72.712, 2346.0
72.809, 2310.0
72.907, 2352.0
73.004, 2243.0
73.102, 2139.0
73.200, 2312.0
73.297, 2237.0
73.395, 2270.0
73.492, 2298.0
73.590, 2209.0
73.688, 2188.0
73.785, 2186.0
73.883, 2217.0
73.980, 2137.0
74.078, 2161.0
74.176, 2085.0
74.273, 2119.0
74.371, 2167.0
74.468, 2154.0
74.566, 2145.0
74.664, 2191.0
74.761, 2131.0
74.859, 2032.0
74.956, 2104.0
75.054, 2117.0
75.152, 2059.0
75.249, 2086.0
75.347, 2055.0
75.444, 2046.0
75.542, 2141.0
75.640, 2082.0
75.737, 2012.0
75.835, 2042.0
75.932, 2144.0
76.030, 2084.0
76.128, 2102.0
76.225, 2031.0
76.323, 2030.0
76.420, 2064.0
76.518, 2115.0
76.616, 2005.0
76.713, 2046.0
76.811, 2087.0
76.908, 1980.0
77.006, 1964.0
77.104, 1974.0
77.201, 1936.0
77.299, 2076.0
77.396, 2035.0
77.494, 1958.0
77.592, 1959.0
77.689, 1908.0
77.787, 2006.0
77.884, 2049.0
77.982, 1867.0
78.080, 1897.0
78.177, 1915.0
78.275, 1888.0
78.372, 1905.0
78.470, 1867.0
78.568, 1932.0
78.665, 1892.0
78.763, 1824.0
78.860, 1945.0
78.958, 1901.0
79.056, 1779.0
79.153, 1891.0
79.251, 1844.0
79.348, 1830.0
79.446, 1811.0
79.544, 1810.0
79.641, 1759.0
79.739, 1842.0
79.836, 1767.0
79.934, 1769.0
80.032, 1835.0
80.129, 1791.0
80.227, 1779.0
80.324, 1744.0
80.422, 1811.0
80.520, 1706.0
80.617, 1762.0
80.715, 1663.0
80.812, 1797.0
80.910, 1745.0
81.008, 1735.0
81.105, 1738.0
81.203, 1719.0
81.300, 1720.0
81.398, 1705.0
81.496, 1772.0
81.593, 1699.0
81.691, 1679.0
81.788, 1759.0
81.886, 1661.0
81.984, 1615.0
82.081, 1743.0
82.179, 1724.0
82.276, 1693.0
82.374, 1651.0
82.472, 1701.0
82.569, 1633.0
82.667, 1683.0
82.764, 1624.0
82.862, 1639.0
82.960, 1670.0
83.057, 1581.0
83.155, 1611.0
83.252, 1566.0
83.350, 1573.0
83.448, 1585.0
83.545, 1534.0
83.643, 1567.0
83.740, 1510.0
83.838, 1521.0
83.936, 1510.0
84.033, 1658.0
84.131, 1516.0
84.228, 1538.0
84.326, 1472.0
84.424, 1494.0
84.521, 1552.0
84.619, 1531.0
84.716, 1566.0
84.814, 1540.0
84.912, 1513.0
85.009, 1519.0
85.107, 1505.0
85.204, 1474.0
85.302, 1466.0
85.400, 1496.0
85.497, 1569.0
85.595, 1505.0
85.692, 1489.0
85.790, 1494.0
85.888, 1452.0
85.985, 1449.0
86.083, 1417.0
86.180, 1438.0
86.278, 1484.0
86.376, 1481.0
86.473, 1449.0
86.571, 1439.0
86.668, 1395.0
86.766, 1457.0
86.864, 1434.0
86.961, 1405.0
87.059, 1360.0
87.156, 1427.0
87.254, 1394.0
87.352, 1364.0
87.449, 1384.0
87.547, 1392.0
87.644, 1301.0
87.742, 1377.0
87.840, 1324.0
87.937, 1318.0
88.035, 1350.0
88.132, 1324.0
88.230, 1314.0
88.328, 1330.0
88.425, 1445.0
88.523, 1316.0
88.620, 1291.0
88.718, 1352.0
88.816, 1334.0
88.913, 1334.0
89.011, 1350.0
89.108, 1309.0
89.206, 1258.0
89.304, 1311.0
89.401, 1286.0
89.499, 1292.0
89.596, 1332.0
89.694, 1299.0
89.792, 1247.0
89.889, 1259.0
89.987, 1293.0
90.084, 1265.0
#ENDOFDATA   : End Of Data and File
