#FORMAT	     : EMSA/MAS Spectral Data File
#VERSION     : 1.0
#TITLE       : Al2O3_(alpha)_Al_L1_Stefan_Nufer_54
#DATE        : 
#TIME        : 
#OWNER       : eelsdatabase.net
#NPOINTS     : 601
#NCOLUMNS    : 1
#XUNITS      : eV
#YUNITS      : 
#DATATYPE    : XY
#XPERCHAN    : 0.099999
#OFFSET      : 112.900009
#SIGNALTYPE  : ELS
#SPECTRUM    : Spectral Data Starts Here
112.900009, 2.888672
113.000008, -9.197266
113.100006, -7.373047
113.200005, 11.447266
113.300003, 15.880859
113.400002, -11.181641
113.500000, -9.746094
113.599998, -0.146484
113.699997, 23.490234
113.799995, 30.390625
113.899994, 5.345703
113.999992, -19.818359
114.099991, -23.947266
114.199989, -24.298828
114.299988, 0.525391
114.399986, 5.832031
114.499985, -4.515625
114.599983, -21.289062
114.699982, 10.792969
114.799980, 3.599609
114.899979, 21.148438
114.999977, 52.597656
115.099976, 35.335938
115.199974, 16.636719
115.299973, 31.208984
115.399971, 42.863281
115.499969, 52.541016
115.599968, 32.257812
115.699966, 20.445312
115.799965, 32.873047
115.899963, 55.328125
115.999962, 56.361328
116.099960, 58.462891
116.199959, 85.693359
116.299957, 94.007812
116.399956, 99.400391
116.499954, 117.419922
116.599953, 127.988281
116.699951, 152.099609
116.799950, 166.630859
116.899948, 171.189453
116.999947, 207.914062
117.099945, 201.226562
117.199944, 177.019531
117.299942, 212.900391
117.399940, 218.058594
117.499939, 198.869141
117.599937, 232.812500
117.699936, 268.207031
117.799934, 246.365234
117.899933, 272.566406
117.999931, 298.755859
118.099930, 300.275391
118.199928, 322.843750
118.299927, 319.220703
118.399925, 329.285156
118.499924, 325.017578
118.599922, 343.800781
118.699921, 358.023438
118.799919, 365.890625
118.899918, 393.261719
118.999916, 399.578125
119.099915, 420.570312
119.199913, 421.193359
119.299911, 448.203125
119.399910, 492.041016
119.499908, 496.501953
119.599907, 515.582031
119.699905, 537.714844
119.799904, 578.638672
119.899902, 621.138672
119.999901, 616.871094
120.099899, 612.070312
120.199898, 668.720703
120.299896, 706.900391
120.399895, 741.492188
120.499893, 757.466797
120.599892, 804.082031
120.699890, 808.970703
120.799889, 856.037109
120.899887, 878.337891
120.999886, 940.703125
121.099884, 966.058594
121.199883, 1015.892578
121.299881, 1042.000000
121.399879, 1124.234375
121.499878, 1158.060547
121.599876, 1180.761719
121.699875, 1231.542969
121.799873, 1287.742188
121.899872, 1346.462891
121.999870, 1395.244141
122.099869, 1448.300781
122.199867, 1512.646484
122.299866, 1547.402344
122.399864, 1581.662109
122.499863, 1632.281250
122.599861, 1666.134766
122.699860, 1720.732422
122.799858, 1796.750000
122.899857, 1817.869141
122.999855, 1916.023438
123.099854, 1956.484375
123.199852, 2015.660156
123.299850, 2057.615234
123.399849, 2127.722656
123.499847, 2119.304688
123.599846, 2137.183594
123.699844, 2157.523438
123.799843, 2175.146484
123.899841, 2210.099609
123.999840, 2272.156250
124.099838, 2286.449219
124.199837, 2307.232422
124.299835, 2328.226562
124.399834, 2347.912109
124.499832, 2304.451172
124.599831, 2345.121094
124.699829, 2378.201172
124.799828, 2412.162109
124.899826, 2419.750977
124.999825, 2449.272461
125.099823, 2483.356445
125.199821, 2501.250000
125.299820, 2525.413086
125.399818, 2584.670898
125.499817, 2614.082031
125.599815, 2668.902344
125.699814, 2694.047852
125.799812, 2764.156250
125.899811, 2796.010742
125.999809, 2875.582031
126.099808, 2931.030273
126.199806, 2994.226562
126.299805, 3049.526367
126.399803, 3087.328125
126.499802, 3135.826172
126.599800, 3183.736328
126.699799, 3255.294922
126.799797, 3332.940430
126.899796, 3368.869141
126.999794, 3431.541016
127.099792, 3475.222656
127.199791, 3514.812500
127.299789, 3525.422852
127.399788, 3573.640625
127.499786, 3598.520508
127.599785, 3635.925781
127.699783, 3693.547852
127.799782, 3737.263672
127.899780, 3694.772461
127.999779, 3677.990234
128.099777, 3640.610352
128.199783, 3648.402344
128.299789, 3640.789062
128.399796, 3604.360352
128.499802, 3563.577148
128.599808, 3527.290039
128.699814, 3513.161133
128.799820, 3466.141602
128.899826, 3474.812500
128.999832, 3414.179688
129.099838, 3404.140625
129.199844, 3395.135742
129.299850, 3405.306641
129.399857, 3377.474609
129.499863, 3353.870117
129.599869, 3380.380859
129.699875, 3395.925781
129.799881, 3408.463867
129.899887, 3406.236328
129.999893, 3351.687500
130.099899, 3331.822266
130.199905, 3316.082031
130.299911, 3295.388672
130.399918, 3288.729492
130.499924, 3297.301758
130.599930, 3296.168945
130.699936, 3266.989258
130.799942, 3232.401367
130.899948, 3191.322266
130.999954, 3109.255859
131.099960, 3083.661133
131.199966, 3018.108398
131.299973, 2973.484375
131.399979, 2932.852539
131.499985, 2917.958984
131.599991, 2870.841797
131.699997, 2852.987305
131.800003, 2859.601562
131.900009, 2827.937500
132.000015, 2810.980469
132.100021, 2795.913086
132.200027, 2784.051758
132.300034, 2751.796875
132.400040, 2759.682617
132.500046, 2701.318359
132.600052, 2705.295898
132.700058, 2687.337891
132.800064, 2690.779297
132.900070, 2639.444336
133.000076, 2619.074219
133.100082, 2591.191406
133.200089, 2567.533203
133.300095, 2550.469727
133.400101, 2526.073242
133.500107, 2490.457031
133.600113, 2446.967773
133.700119, 2417.060547
133.800125, 2379.519531
133.900131, 2333.580078
134.000137, 2333.051758
134.100143, 2284.034180
134.200150, 2236.211914
134.300156, 2242.914062
134.400162, 2201.316406
134.500168, 2140.086914
134.600174, 2132.208984
134.700180, 2092.073242
134.800186, 2083.072266
134.900192, 2048.303711
135.000198, 1992.929688
135.100204, 1972.238281
135.200211, 1944.874023
135.300217, 1959.949219
135.400223, 1974.395508
135.500229, 1932.306641
135.600235, 1913.682617
135.700241, 1917.658203
135.800247, 1919.209961
135.900253, 1908.515625
136.000259, 1900.483398
136.100266, 1899.367188
136.200272, 1895.495117
136.300278, 1895.635742
136.400284, 1879.146484
136.500290, 1898.911133
136.600296, 1872.798828
136.700302, 1877.525391
136.800308, 1907.274414
136.900314, 1894.285156
137.000320, 1892.677734
137.100327, 1916.309570
137.200333, 1905.081055
137.300339, 1890.298828
137.400345, 1870.595703
137.500351, 1868.157227
137.600357, 1897.505859
137.700363, 1898.526367
137.800369, 1898.758789
137.900375, 1888.853516
138.000381, 1880.712891
138.100388, 1887.183594
138.200394, 1904.890625
138.300400, 1897.114258
138.400406, 1886.308594
138.500412, 1888.296875
138.600418, 1921.699219
138.700424, 1924.497070
138.800430, 1924.673828
138.900436, 1916.804688
139.000443, 1931.050781
139.100449, 1931.926758
139.200455, 1958.013672
139.300461, 1984.990234
139.400467, 1973.351562
139.500473, 1974.066406
139.600479, 1983.240234
139.700485, 1983.339844
139.800491, 1977.771484
139.900497, 1985.812500
140.000504, 1977.171875
140.100510, 1994.949219
140.200516, 1984.991211
140.300522, 1982.267578
140.400528, 2014.507812
140.500534, 2022.552734
140.600540, 1996.529297
140.700546, 1975.570312
140.800552, 1999.901367
140.900558, 2001.236328
141.000565, 2019.823242
141.100571, 1997.008789
141.200577, 2011.960938
141.300583, 2018.193359
141.400589, 2000.024414
141.500595, 2027.997070
141.600601, 2030.402344
141.700607, 2024.287109
141.800613, 2003.337891
141.900620, 2028.353516
142.000626, 2024.433594
142.100632, 2017.184570
142.200638, 2011.215820
142.300644, 2054.099609
142.400650, 2016.605469
142.500656, 1998.985352
142.600662, 2022.444336
142.700668, 2025.729492
142.800674, 2045.248047
142.900681, 2030.038086
143.000687, 2024.597656
143.100693, 2024.899414
143.200699, 2049.753906
143.300705, 2055.209961
143.400711, 2068.343750
143.500717, 2051.205078
143.600723, 2034.158203
143.700729, 2059.534180
143.800735, 2054.954102
143.900742, 2058.250977
144.000748, 2034.302734
144.100754, 2033.624023
144.200760, 2052.322266
144.300766, 2052.197266
144.400772, 2054.013672
144.500778, 2024.062500
144.600784, 2010.224609
144.700790, 2022.984375
144.800797, 2043.822266
144.900803, 2031.433594
145.000809, 2042.311523
145.100815, 2019.065430
145.200821, 1968.161133
145.300827, 2001.375977
145.400833, 1998.609375
145.500839, 1987.929688
145.600845, 1969.152344
145.700851, 1972.019531
145.800858, 1969.009766
145.900864, 1966.330078
146.000870, 1932.307617
146.100876, 1926.138672
146.200882, 1925.931641
146.300888, 1923.796875
146.400894, 1881.568359
146.500900, 1854.395508
146.600906, 1859.831055
146.700912, 1842.472656
146.800919, 1828.829102
146.900925, 1803.018555
147.000931, 1821.137695
147.100937, 1825.769531
147.200943, 1847.381836
147.300949, 1855.534180
147.400955, 1841.051758
147.500961, 1848.324219
147.600967, 1844.331055
147.700974, 1806.975586
147.800980, 1820.105469
147.900986, 1819.951172
148.000992, 1814.297852
148.100998, 1818.800781
148.201004, 1847.819336
148.301010, 1846.370117
148.401016, 1839.472656
148.501022, 1869.248047
148.601028, 1857.107422
148.701035, 1824.281250
148.801041, 1842.835938
148.901047, 1856.553711
149.001053, 1851.829102
149.101059, 1851.118164
149.201065, 1870.320312
149.301071, 1850.310547
149.401077, 1853.154297
149.501083, 1856.967773
149.601089, 1864.045898
149.701096, 1864.289062
149.801102, 1880.625000
149.901108, 1858.059570
150.001114, 1886.944336
150.101120, 1892.090820
150.201126, 1895.525391
150.301132, 1893.903320
150.401138, 1872.345703
150.501144, 1895.937500
150.601151, 1899.741211
150.701157, 1915.830078
150.801163, 1897.678711
150.901169, 1884.067383
151.001175, 1886.641602
151.101181, 1887.128906
151.201187, 1893.149414
151.301193, 1915.916016
151.401199, 1882.913086
151.501205, 1885.998047
151.601212, 1890.292969
151.701218, 1867.256836
151.801224, 1892.972656
151.901230, 1871.623047
152.001236, 1868.187500
152.101242, 1859.750977
152.201248, 1864.201172
152.301254, 1878.073242
152.401260, 1857.250977
152.501266, 1838.560547
152.601273, 1823.241211
152.701279, 1806.425781
152.801285, 1807.835938
152.901291, 1805.578125
153.001297, 1792.524414
153.101303, 1786.626953
153.201309, 1793.002930
153.301315, 1777.117188
153.401321, 1791.153320
153.501328, 1780.522461
153.601334, 1757.016602
153.701340, 1721.779297
153.801346, 1715.403320
153.901352, 1724.423828
154.001358, 1701.220703
154.101364, 1701.765625
154.201370, 1677.904297
154.301376, 1683.561523
154.401382, 1670.008789
154.501389, 1649.004883
154.601395, 1624.174805
154.701401, 1621.957031
154.801407, 1634.647461
154.901413, 1606.749023
155.001419, 1601.857422
155.101425, 1611.822266
155.201431, 1553.047852
155.301437, 1577.886719
155.401443, 1561.283203
155.501450, 1552.838867
155.601456, 1539.625000
155.701462, 1550.165039
155.801468, 1540.913086
155.901474, 1516.941406
156.001480, 1483.640625
156.101486, 1494.258789
156.201492, 1454.817383
156.301498, 1468.193359
156.401505, 1437.656250
156.501511, 1428.756836
156.601517, 1426.568359
156.701523, 1418.243164
156.801529, 1401.922852
156.901535, 1392.198242
157.001541, 1396.244141
157.101547, 1400.793945
157.201553, 1380.851562
157.301559, 1368.249023
157.401566, 1350.907227
157.501572, 1346.974609
157.601578, 1328.577148
157.701584, 1314.247070
157.801590, 1317.411133
157.901596, 1296.791016
158.001602, 1292.648438
158.101608, 1266.363281
158.201614, 1262.671875
158.301620, 1257.284180
158.401627, 1253.179688
158.501633, 1259.625977
158.601639, 1233.030273
158.701645, 1247.231445
158.801651, 1236.667969
158.901657, 1208.926758
159.001663, 1206.863281
159.101669, 1225.021484
159.201675, 1212.225586
159.301682, 1201.373047
159.401688, 1209.290039
159.501694, 1199.279297
159.601700, 1170.746094
159.701706, 1181.854492
159.801712, 1165.712891
159.901718, 1153.751953
160.001724, 1160.577148
160.101730, 1163.459961
160.201736, 1150.564453
160.301743, 1147.525391
160.401749, 1140.474609
160.501755, 1135.383789
160.601761, 1136.024414
160.701767, 1154.197266
160.801773, 1120.266602
160.901779, 1128.904297
161.001785, 1112.118164
161.101791, 1139.613281
161.201797, 1142.737305
161.301804, 1141.365234
161.401810, 1144.500000
161.501816, 1148.116211
161.601822, 1148.100586
161.701828, 1151.527344
161.801834, 1150.280273
161.901840, 1158.931641
162.001846, 1167.651367
162.101852, 1186.913086
162.201859, 1177.040039
162.301865, 1169.411133
162.401871, 1173.027344
162.501877, 1189.045898
162.601883, 1161.158203
162.701889, 1157.944336
162.801895, 1178.045898
162.901901, 1165.106445
163.001907, 1176.179688
163.101913, 1173.428711
163.201920, 1158.761719
163.301926, 1183.104492
163.401932, 1180.740234
163.501938, 1169.105957
163.601944, 1159.144531
163.701950, 1157.634766
163.801956, 1159.850586
163.901962, 1157.962402
164.001968, 1162.118164
164.101974, 1170.914062
164.201981, 1189.966797
164.301987, 1178.276367
164.401993, 1165.834961
164.501999, 1169.652832
164.602005, 1174.195312
164.702011, 1166.470703
164.802017, 1161.644531
164.902023, 1148.359863
165.002029, 1140.547363
165.102036, 1142.561035
165.202042, 1147.372559
165.302048, 1117.428223
165.402054, 1149.730469
165.502060, 1134.942871
165.602066, 1138.870605
165.702072, 1154.589844
165.802078, 1156.512695
165.902084, 1112.180176
166.002090, 1113.068848
166.102097, 1114.056152
166.202103, 1100.407715
166.302109, 1116.346680
166.402115, 1107.639648
166.502121, 1101.585938
166.602127, 1103.322266
166.702133, 1079.898926
166.802139, 1095.721191
166.902145, 1107.812012
167.002151, 1112.451660
167.102158, 1105.965332
167.202164, 1081.667969
167.302170, 1058.257324
167.402176, 1068.206055
167.502182, 1080.773438
167.602188, 1053.736816
167.702194, 1061.222168
167.802200, 1057.793457
167.902206, 1066.555176
168.002213, 1064.471680
168.102219, 1052.093262
168.202225, 1054.796875
168.302231, 1048.461426
168.402237, 1053.701172
168.502243, 1031.258301
168.602249, 1010.881348
168.702255, 1031.587402
168.802261, 1021.291992
168.902267, 1015.010742
169.002274, 1008.316406
169.102280, 1002.576172
169.202286, 990.958496
169.302292, 988.648438
169.402298, 972.692871
169.502304, 975.754395
169.602310, 971.611816
169.702316, 967.973633
169.802322, 969.339355
169.902328, 961.402832
170.002335, 958.690918
170.102341, 927.045410
170.202347, 930.323730
170.302353, 934.150879
170.402359, 941.614258
170.502365, 934.797363
170.602371, 918.560059
170.702377, 902.331543
170.802383, 915.466797
170.902390, 904.545898
171.002396, 891.485840
171.102402, 882.081055
171.202408, 870.746582
171.302414, 860.664551
171.402420, 856.314941
171.502426, 854.142578
171.602432, 857.744141
171.702438, 857.529297
171.802444, 845.368652
171.902451, 848.455566
172.002457, 841.833496
172.102463, 850.277832
172.202469, 841.087402
172.302475, 839.425293
172.402481, 817.343750
172.502487, 812.374512
172.602493, 804.859863
172.702499, 808.523438
172.802505, 798.577637
172.902512, 785.029297
#ENDOFDATA   : End Of Data and File
